LabVIEW Measurement	
Writer_Version	0.92
Reader_Version	1
Separator	Tab
Multi_Headings	Yes
X_Columns	One
Time_Pref	Absolute
Operator	LHRI
Description	This is a HULC measurement file.
Date	2010/10/18
Time	19:49:41.970999
***End_of_Header***	
	
Channels	10										
Samples	133	133	133	133	133	133	133	133	133	133	
Date	2010/10/18	2010/10/18	2010/10/18	2010/10/18	2010/10/18	2010/10/18	2010/10/18	2010/10/18	2010/10/18	2010/10/18	
Time	19:49:43.454999	19:49:43.454999	19:49:43.454999	19:49:43.454999	19:49:43.454999	19:49:43.454999	19:49:43.454999	19:49:43.454999	19:49:43.454999	19:49:43.454999	
X_Dimension	Time	Time	Time	Time	Time	Time	Time	Time	Time	Time	
X0	2.9652969999313354E+3	2.9652969999313354E+3	2.9652969999313354E+3	2.9652969999313354E+3	2.9652969999313354E+3	2.9652969999313354E+3	2.9652969999313354E+3	2.9652969999313354E+3	2.9652969999313354E+3	2.9652969999313354E+3	
Delta_X	0.010000	0.010000	0.010000	0.010000	0.010000	0.010000	0.010000	0.010000	0.010000	0.010000	
***End_of_Header***											
X_Value	Joint Angle (Resampled)	Brachialis Motor Mount (Prime Mover) (Resampled)	Biceps (Resampled)	Brachialis (Resampled)	Brachioradialis (Resampled)	Supinator (Resampled)	Pronator Terres (Resampled)	Brachialis Motor Mount (Resampled)	Triceps Motor Mount (Resampled)	Biceps Motor Mount (Resampled)	Comment
2965.297000	-10.335321	4.158353	4.158353	4.158353	0.000000	30.000000	0.000000	4.158353	10.473514	3.929788
2965.307000	-10.335321	4.158353	4.158353	4.158353	0.000000	30.000000	0.000000	4.158353	10.805526	4.152857
2965.317000	-10.335321	4.158353	4.158353	4.158353	0.000000	30.000000	0.000000	4.158353	11.162130	4.065569
2965.327000	-10.339025	4.155311	4.155311	4.155311	0.000000	30.000000	0.000000	4.146184	11.543329	4.055870
2965.337000	-10.339025	4.153485	4.153485	4.153485	0.000000	30.000000	0.000000	4.146184	11.850747	4.084966
2965.347000	-10.339025	4.140100	4.140100	4.140100	0.000000	30.000000	0.000000	4.073174	12.170461	4.094665
2965.357000	-10.339025	4.142708	4.142708	4.142708	0.000000	30.000000	0.000000	4.158353	12.453286	4.084966
2965.367000	-10.339025	4.146184	4.146184	4.146184	0.000000	30.000000	0.000000	4.170521	12.674627	4.075268
2965.377000	-10.339025	4.152944	4.152944	4.152944	0.000000	30.000000	0.000000	4.207026	12.895968	4.055870
2965.387000	-10.316626	4.160786	4.160786	4.160786	0.000000	30.000000	0.000000	4.231363	13.006638	4.075268
2965.397000	-10.316626	4.177822	4.177822	4.177822	0.000000	30.000000	0.000000	4.328711	13.031232	4.123761
2965.407000	-10.316626	4.204593	4.204593	4.204593	0.000000	30.000000	0.000000	4.426058	13.166496	4.162556
2965.417000	-10.308131	4.242315	4.242315	4.242315	0.000000	30.000000	0.000000	4.535574	13.092715	4.230447
2965.427000	-10.308131	4.295856	4.295856	4.295856	0.000000	30.000000	0.000000	4.681596	12.994342	4.327433
2965.437000	-10.308131	4.360349	4.360349	4.360349	0.000000	30.000000	0.000000	4.791112	12.859078	4.434119
2965.447000	-10.310026	4.450395	4.450395	4.450395	0.000000	30.000000	0.000000	4.973639	12.686924	4.521407
2965.457000	-10.310026	4.547743	4.547743	4.547743	0.000000	30.000000	0.000000	5.131828	12.477879	4.589298
2965.467000	-10.308399	4.662126	4.662126	4.662126	0.000000	30.000000	0.000000	5.314355	12.256538	4.676586
2965.477000	-10.298010	4.794762	4.794762	4.794762	0.000000	30.000000	0.000000	5.533387	12.010604	4.870559
2965.487000	-10.298010	4.944434	4.944434	4.944434	0.000000	30.000000	0.000000	5.728082	11.715483	5.035437
2965.497000	-10.299638	5.108708	5.108708	5.108708	0.000000	30.000000	0.000000	5.971451	11.432658	5.200314
2965.507000	-10.310026	5.285151	5.285151	5.285151	0.000000	30.000000	0.000000	6.190483	11.137537	5.433082
2965.517000	-10.301535	5.477412	5.477412	5.477412	0.000000	30.000000	0.000000	6.458189	10.793229	5.617357
2965.527000	-10.301535	5.684276	5.684276	5.684276	0.000000	30.000000	0.000000	6.750232	10.485811	5.840427
2965.537000	-10.301535	5.930078	5.930078	5.930078	0.000000	30.000000	0.000000	7.249138	9.846382	6.373854
2965.547000	-10.301535	6.186833	6.186833	6.186833	0.000000	30.000000	0.000000	7.541181	9.538964	6.470841
2965.557000	-10.287440	6.458189	6.458189	6.458189	0.000000	30.000000	0.000000	7.845392	9.268436	6.761801
2965.567000	-10.285812	6.711293	6.711293	6.711293	0.000000	30.000000	0.000000	7.845392	9.268436	6.761801
2965.577000	-10.287440	7.002119	7.002119	7.002119	0.000000	30.000000	0.000000	8.441646	8.899534	7.246735
2965.587000	-10.287440	7.307547	7.307547	7.307547	0.000000	30.000000	0.000000	8.782362	8.764270	7.624983
2965.597000	-10.295933	7.619059	7.619059	7.619059	0.000000	30.000000	0.000000	9.086573	8.690490	7.838354
2965.607000	-10.295933	7.946390	7.946390	7.946390	0.000000	30.000000	0.000000	9.463795	8.653600	8.129315
2965.617000	-10.285545	8.246951	8.246951	8.246951	0.000000	30.000000	0.000000	9.463795	8.653600	8.129315
2965.627000	-10.277053	8.584017	8.584017	8.584017	0.000000	30.000000	0.000000	10.120891	8.715083	8.701536
2965.637000	-10.266666	8.902830	8.902830	8.902830	0.000000	30.000000	0.000000	10.437271	8.887237	9.031291
2965.647000	-10.258175	9.226511	9.226511	9.226511	0.000000	30.000000	0.000000	10.777987	8.961018	9.322252
2965.657000	-10.244079	9.553842	9.553842	9.553842	0.000000	30.000000	0.000000	11.118704	9.157765	9.642308
2965.667000	-10.244079	9.912811	9.912811	9.912811	0.000000	30.000000	0.000000	11.435084	9.379106	9.991460
2965.677000	-10.232058	10.249877	10.249877	10.249877	0.000000	30.000000	0.000000	11.812305	9.600447	10.330914
2965.687000	-10.221671	10.586943	10.586943	10.586943	0.000000	30.000000	0.000000	12.153022	9.883272	10.680066
2965.697000	-10.214994	10.930093	10.930093	10.930093	0.000000	30.000000	0.000000	12.518075	10.153799	11.048616
2965.707000	-10.213099	11.279327	11.279327	11.279327	0.000000	30.000000	0.000000	12.956139	10.424327	11.446262
2965.717000	-10.202713	11.665067	11.665067	11.665067	0.000000	30.000000	0.000000	13.321193	10.756339	11.746921
2965.727000	-10.214914	12.022820	12.022820	12.022820	0.000000	30.000000	0.000000	13.698415	11.026867	12.105772
2965.737000	-10.214914	12.383006	12.383006	12.383006	0.000000	30.000000	0.000000	14.039131	11.408065	12.445226
2965.747000	-10.194394	12.735890	12.735890	12.735890	0.000000	30.000000	0.000000	14.306837	11.740076	12.745885
2965.757000	-10.185902	13.088775	13.088775	13.088775	0.000000	30.000000	0.000000	14.647553	12.096681	13.027146
2965.767000	-10.185902	13.435576	13.435576	13.435576	0.000000	30.000000	0.000000	14.903091	12.453286	13.289010
2965.777000	-10.175768	13.767775	13.767775	13.767775	0.000000	30.000000	0.000000	15.134291	12.846781	13.502381
2965.787000	-10.136208	14.090239	14.090239	14.090239	0.000000	30.000000	0.000000	15.377660	13.191089	13.579971
2965.797000	-10.103233	14.390799	14.390799	14.390799	0.000000	30.000000	0.000000	15.523682	13.633771	13.909726
2965.807000	-10.074229	14.664589	14.664589	14.664589	0.000000	30.000000	0.000000	15.694040	14.076453	14.035809
2965.817000	-9.960402	14.911609	14.911609	14.911609	0.000000	30.000000	0.000000	15.791387	14.469948	14.152193
2965.827000	-9.681165	15.128207	15.128207	15.128207	0.000000	30.000000	0.000000	15.864398	14.851146	14.287974
2965.837000	-9.447832	15.313167	15.313167	15.313167	0.000000	30.000000	0.000000	15.888735	15.318421	14.384961
2965.847000	-9.447832	15.484743	15.484743	15.484743	0.000000	30.000000	0.000000	16.022588	15.748807	14.443153
2965.857000	-9.137293	15.631981	15.631981	15.631981	0.000000	30.000000	0.000000	16.119935	16.191488	14.511044
2965.867000	-9.033742	15.757316	15.757316	15.757316	0.000000	30.000000	0.000000	16.156441	16.634170	14.627428
2965.877000	-8.967832	15.869265	15.869265	15.869265	0.000000	30.000000	0.000000	16.253788	17.064556	14.666223
2965.887000	-8.967832	15.960529	15.960529	15.960529	0.000000	30.000000	0.000000	16.290294	17.470347	14.753511
2965.897000	-8.905630	16.050575	16.050575	16.050575	0.000000	30.000000	0.000000	16.424147	18.023700	14.860196
2965.907000	-8.729736	16.132104	16.132104	16.132104	0.000000	30.000000	0.000000	16.509326	18.441788	15.015375
2965.917000	-8.698696	16.214849	16.214849	16.214849	0.000000	30.000000	0.000000	16.618842	18.933657	15.044471
2965.927000	-8.674293	16.297595	16.297595	16.297595	0.000000	30.000000	0.000000	16.691852	19.425526	15.189951
2965.937000	-8.634832	16.390075	16.390075	16.390075	0.000000	30.000000	0.000000	16.813537	19.905098	15.238445
2965.947000	-8.586964	16.483772	16.483772	16.483772	0.000000	30.000000	0.000000	16.959558	20.409263	15.345130
2965.957000	-8.555935	16.573819	16.573819	16.573819	0.000000	30.000000	0.000000	17.020400	20.901132	15.267541
2965.967000	-8.555935	16.671166	16.671166	16.671166	0.000000	30.000000	0.000000	17.129917	21.417594	15.519706
2965.977000	-8.500493	16.768514	16.768514	16.768514	0.000000	30.000000	0.000000	17.227264	21.897166	15.577898
2965.987000	-8.436456	16.879247	16.879247	16.879247	0.000000	30.000000	0.000000	17.397622	22.966981	15.713680
2965.997000	-8.343421	16.982678	16.982678	16.982678	0.000000	30.000000	0.000000	17.458465	23.483443	15.810666
2966.007000	-8.237978	17.093411	17.093411	17.093411	0.000000	30.000000	0.000000	17.616654	23.999905	15.868859
2966.017000	-8.130715	17.193192	17.193192	17.193192	0.000000	30.000000	0.000000	17.616654	23.999905	15.868859
2966.027000	-7.859703	17.303925	17.303925	17.303925	0.000000	30.000000	0.000000	17.799181	25.008236	16.072531
2966.037000	-7.762666	17.412224	17.412224	17.412224	0.000000	30.000000	0.000000	17.896529	25.426325	16.091928
2966.047000	-7.762666	17.516873	17.516873	17.516873	0.000000	30.000000	0.000000	18.006045	25.746039	16.130723
2966.057000	-7.657251	17.623955	17.623955	17.623955	0.000000	30.000000	0.000000	18.091224	26.237908	16.227710
2966.067000	-7.487802	17.734688	17.734688	17.734688	0.000000	30.000000	0.000000	18.237245	26.520733	16.276203
2966.077000	-7.423772	17.845421	17.845421	17.845421	0.000000	30.000000	0.000000	18.334593	26.778964	16.353792
2966.087000	-7.349361	17.947636	17.947636	17.947636	0.000000	30.000000	0.000000	18.419772	27.037195	16.450779
2966.097000	-7.285332	18.051068	18.051068	18.051068	0.000000	30.000000	0.000000	18.492783	27.221646	16.508971
2966.107000	-7.233706	18.148415	18.148415	18.148415	0.000000	30.000000	0.000000	18.590130	27.369207	16.615657
2966.117000	-7.211056	18.253064	18.253064	18.253064	0.000000	30.000000	0.000000	18.663141	27.492174	16.596259
2966.127000	-7.169678	18.347978	18.347978	18.347978	0.000000	30.000000	0.000000	18.748320	27.529064	16.751438
2966.137000	-7.097311	18.439241	18.439241	18.439241	0.000000	30.000000	0.000000	18.809162	27.492174	16.761137
2966.147000	-7.043648	18.519553	18.519553	18.519553	0.000000	30.000000	0.000000	18.809162	27.418393	16.770835
2966.157000	-6.971290	18.593781	18.593781	18.593781	0.000000	30.000000	0.000000	18.833499	27.344613	16.829028
2966.167000	-6.812235	18.647322	18.647322	18.647322	0.000000	30.000000	0.000000	18.772657	27.197052	16.829028
2966.177000	-6.655205	18.695996	18.695996	18.695996	0.000000	30.000000	0.000000	18.821331	27.024898	16.799931
2966.187000	-6.537503	18.732501	18.732501	18.732501	0.000000	30.000000	0.000000	18.784825	26.815854	16.799931
2966.197000	-6.390734	18.755621	18.755621	18.755621	0.000000	30.000000	0.000000	18.723983	26.582216	16.809630
2966.207000	-6.231681	18.761705	18.761705	18.761705	0.000000	30.000000	0.000000	18.650972	26.299392	16.673849
2966.217000	-6.085094	18.754404	18.754404	18.754404	0.000000	30.000000	0.000000	18.590130	25.967380	16.596259
2966.227000	-5.959103	18.730067	18.730067	18.730067	0.000000	30.000000	0.000000	18.504951	25.758336	16.605958
2966.237000	-5.833118	18.693562	18.693562	18.693562	0.000000	30.000000	0.000000	18.444109	25.377138	16.538067
2966.247000	-5.643143	18.653406	18.653406	18.653406	0.000000	30.000000	0.000000	18.407603	25.094313	16.489574
2966.257000	-5.589420	18.603515	18.603515	18.603515	0.000000	30.000000	0.000000	18.334593	24.713115	16.460478
2966.267000	-5.494377	18.553625	18.553625	18.553625	0.000000	30.000000	0.000000	18.273750	24.356510	16.431382
2966.277000	-5.413772	18.498867	18.498867	18.498867	0.000000	30.000000	0.000000	18.273750	23.999905	16.382888
2966.287000	-5.413772	18.442892	18.442892	18.442892	0.000000	30.000000	0.000000	18.225077	23.237509	16.382888
2966.297000	-5.413772	18.389351	18.389351	18.389351	0.000000	30.000000	0.000000	18.188571	22.807123	16.353792
2966.307000	-5.262984	18.341894	18.341894	18.341894	0.000000	30.000000	0.000000	18.176403	22.413628	16.402286
2966.317000	-4.972001	18.300521	18.300521	18.300521	0.000000	30.000000	0.000000	18.176403	22.007837	16.373190
2966.327000	-4.841957	18.261582	18.261582	18.261582	0.000000	30.000000	0.000000	18.115561	21.589748	16.373190
2966.337000	-4.782088	18.234811	18.234811	18.234811	0.000000	30.000000	0.000000	18.176403	21.233143	16.392587
2966.347000	-4.697439	18.209258	18.209258	18.209258	0.000000	30.000000	0.000000	18.152066	20.839648	16.344094
2966.357000	-4.612790	18.186138	18.186138	18.186138	0.000000	30.000000	0.000000	18.103392	20.495340	16.402286
2966.367000	-4.505440	18.167885	18.167885	18.167885	0.000000	30.000000	0.000000	18.091224	20.163329	16.285902
2966.377000	-4.505440	18.142331	18.142331	18.142331	0.000000	30.000000	0.000000	18.018213	19.794427	16.266504
2966.387000	-4.261801	18.114344	18.114344	18.114344	0.000000	30.000000	0.000000	17.945202	19.646867	16.198614
2966.397000	-4.158606	18.083923	18.083923	18.083923	0.000000	30.000000	0.000000	17.884360	19.388635	16.130723
2966.407000	-4.158606	18.051068	18.051068	18.051068	0.000000	30.000000	0.000000	17.847855	19.216481	16.062832
2966.417000	-4.028363	18.009695	18.009695	18.009695	0.000000	30.000000	0.000000	17.762676	19.032031	16.014339
2966.427000	-3.887919	17.971973	17.971973	17.971973	0.000000	30.000000	0.000000	17.738339	18.945954	15.946448
2966.437000	-3.638126	17.924516	17.924516	17.924516	0.000000	30.000000	0.000000	17.701833	18.810690	15.897955
2966.447000	-3.638126	17.880710	17.880710	17.880710	0.000000	30.000000	0.000000	17.714002	18.712316	15.820365
2966.457000	-3.530558	17.841771	17.841771	17.841771	0.000000	30.000000	0.000000	17.714002	18.687722	15.849461
2966.467000	-3.468629	17.811350	17.811350	17.811350	0.000000	30.000000	0.000000	17.787013	18.589349	15.839762
2966.477000	-3.392120	17.795531	17.795531	17.795531	0.000000	30.000000	0.000000	17.860023	18.626239	15.878557
2966.487000	-3.307701	17.788229	17.788229	17.788229	0.000000	30.000000	0.000000	17.872192	18.650832	15.936749
2966.497000	-3.233430	17.797964	17.797964	17.797964	0.000000	30.000000	0.000000	17.981708	18.724613	15.985243
2966.507000	-3.192219	17.815000	17.815000	17.815000	0.000000	30.000000	0.000000	18.018213	18.847580	16.024037
2966.517000	-3.126300	17.846638	17.846638	17.846638	0.000000	30.000000	0.000000	18.079055	19.044327	16.159819
2966.527000	-3.033557	17.884360	17.884360	17.884360	0.000000	30.000000	0.000000	18.115561	19.277965	16.014339
2966.537000	-2.944676	17.928167	17.928167	17.928167	0.000000	30.000000	0.000000	18.139898	19.474712	16.121024
2966.547000	-2.752663	17.971973	17.971973	17.971973	0.000000	30.000000	0.000000	18.152066	19.843614	16.072531
2966.557000	-2.634943	18.018213	18.018213	18.018213	0.000000	30.000000	0.000000	18.176403	20.126439	16.072531
2966.567000	-2.573051	18.063236	18.063236	18.063236	0.000000	30.000000	0.000000	18.237245	20.483043	16.101627
2966.577000	-2.463414	18.094874	18.094874	18.094874	0.000000	30.000000	0.000000	18.176403	20.864242	16.072531
2966.587000	-2.368692	18.130163	18.130163	18.130163	0.000000	30.000000	0.000000	18.225077	21.282330	16.062832
2966.597000	-2.151693	18.159367	18.159367	18.159367	0.000000	30.000000	0.000000	18.273750	21.688122	16.140421
2966.607000	-2.085494	18.197089	18.197089	18.197089	0.000000	30.000000	0.000000	18.395435	22.093914	16.188915
2966.617000	-2.011239	18.244546	18.244546	18.244546	0.000000	30.000000	0.000000	18.553625	22.548892	16.314998

