LabVIEW Measurement	
Writer_Version	0.92
Reader_Version	1
Separator	Tab
Multi_Headings	Yes
X_Columns	One
Time_Pref	Absolute
Operator	LHRI
Description	This is a HULC measurement file.
Date	2010/10/19
Time	09:41:05.017999
***End_of_Header***	
	
Channels	10										
Samples	1750	1750	1750	1750	1750	1750	1750	1750	1750	1750	
Date	2010/10/19	2010/10/19	2010/10/19	2010/10/19	2010/10/19	2010/10/19	2010/10/19	2010/10/19	2010/10/19	2010/10/19	
Time	09:41:23.220999	09:41:23.220999	09:41:23.220999	09:41:23.220999	09:41:23.220999	09:41:23.220999	09:41:23.220999	09:41:23.220999	09:41:23.220999	09:41:23.220999	
X_Dimension	Time	Time	Time	Time	Time	Time	Time	Time	Time	Time	
X0	3.3703404650179996E+9	3.3703404650179996E+9	3.3703404650179996E+9	3.3703404650179996E+9	3.3703404650179996E+9	3.3703404650179996E+9	3.3703404650179996E+9	3.3703404650179996E+9	3.3703404650179996E+9	3.3703404650179996E+9	
Delta_X	0.010000	0.010000	0.010000	0.010000	0.010000	0.010000	0.010000	0.010000	0.010000	0.010000	
***End_of_Header***											
X_Value	Joint Angle (Resampled)	Brachialis Motor Mount (Prime Mover) (Resampled)	Biceps (Resampled)	Brachialis (Resampled)	Brachioradialis (Resampled)	Supinator (Resampled)	Pronator Terres (Resampled)	Brachialis Motor Mount (Resampled)	Triceps Motor Mount (Resampled)	Biceps Motor Mount (Resampled)	Comment
3.370340E+9	-10.866520	4.000163	4.000163	4.000163	0.000000	30.000000	0.000000	4.000163	6.563158	4.414721
3.370340E+9	-10.866520	3.994079	3.994079	3.994079	0.000000	30.000000	0.000000	3.987994	6.575454	4.346831
3.370340E+9	-10.866520	3.996107	3.996107	3.996107	0.000000	30.000000	0.000000	4.000163	6.575454	4.249844
3.370340E+9	-10.866520	4.009289	4.009289	4.009289	0.000000	30.000000	0.000000	4.048837	6.686125	4.114062
3.370340E+9	-10.866520	4.022066	4.022066	4.022066	0.000000	30.000000	0.000000	4.073174	6.759905	4.007377
3.370340E+9	-10.866520	4.024500	4.024500	4.024500	0.000000	30.000000	0.000000	4.036668	6.907466	3.910390
3.370340E+9	-10.866520	4.027976	4.027976	4.027976	0.000000	30.000000	0.000000	4.048837	7.042730	3.823102
3.370340E+9	-10.866520	4.030584	4.030584	4.030584	0.000000	30.000000	0.000000	4.048837	7.177994	3.706718
3.370340E+9	-10.866520	4.047485	4.047485	4.047485	0.000000	30.000000	0.000000	4.182690	7.596082	3.667923
3.370340E+9	-10.866520	4.070740	4.070740	4.070740	0.000000	30.000000	0.000000	4.280037	7.829720	3.551539
3.370340E+9	-10.866520	4.113329	4.113329	4.113329	0.000000	30.000000	0.000000	4.426058	8.100247	3.522443
3.370340E+9	-10.866520	4.168087	4.168087	4.168087	0.000000	30.000000	0.000000	4.535574	8.358479	3.522443
3.370340E+9	-10.866520	4.239881	4.239881	4.239881	0.000000	30.000000	0.000000	4.718101	8.665897	3.570937
3.370340E+9	-10.866520	4.322627	4.322627	4.322627	0.000000	30.000000	0.000000	4.876291	8.973314	3.541841
3.370340E+9	-10.926607	4.421191	4.421191	4.421191	0.000000	30.000000	0.000000	5.058818	9.317623	3.609731
3.370340E+9	-10.926607	4.546526	4.546526	4.546526	0.000000	30.000000	0.000000	5.290018	9.674227	3.716417
3.370340E+9	-10.926607	4.692547	4.692547	4.692547	0.000000	30.000000	0.000000	5.509050	10.043129	3.726115
3.370340E+9	-10.926607	4.865339	4.865339	4.865339	0.000000	30.000000	0.000000	5.776756	10.387437	3.803705
3.370340E+9	-10.926607	5.051517	5.051517	5.051517	0.000000	30.000000	0.000000	6.044462	10.780932	3.910390
3.370340E+9	-10.926607	5.251079	5.251079	5.251079	0.000000	30.000000	0.000000	6.275662	11.125240	4.017076
3.370340E+9	-10.926607	5.465244	5.465244	5.465244	0.000000	30.000000	0.000000	6.567705	11.518735	4.084966
3.370340E+9	-10.926607	5.696444	5.696444	5.696444	0.000000	30.000000	0.000000	6.847579	11.912230	4.278940
3.370340E+9	-10.864652	5.941030	5.941030	5.941030	0.000000	30.000000	0.000000	7.163959	12.305725	4.463215
3.370340E+9	-10.863079	6.200218	6.200218	6.200218	0.000000	30.000000	0.000000	7.468170	12.613143	4.657188
3.370340E+9	-10.866749	6.474008	6.474008	6.474008	0.000000	30.000000	0.000000	7.796718	13.105012	4.851162
3.370340E+9	-10.857936	6.756316	6.756316	6.756316	0.000000	30.000000	0.000000	8.113098	13.498507	5.074231
3.370340E+9	-10.856362	7.054443	7.054443	7.054443	0.000000	30.000000	0.000000	8.490320	13.892002	5.229410
3.370340E+9	-10.856362	7.359871	7.359871	7.359871	0.000000	30.000000	0.000000	8.831036	14.285497	5.520371
3.370340E+9	-10.854494	7.664082	7.664082	7.664082	0.000000	30.000000	0.000000	9.086573	14.715882	5.762837
3.370340E+9	-10.864591	7.993847	7.993847	7.993847	0.000000	30.000000	0.000000	9.573311	15.158564	5.985907
3.370340E+9	-10.864591	8.332130	8.332130	8.332130	0.000000	30.000000	0.000000	9.950533	15.490576	6.257470
3.370340E+9	-10.864591	8.682581	8.682581	8.682581	0.000000	30.000000	0.000000	10.352092	15.982444	6.499937
3.370340E+9	-10.873113	9.084140	9.084140	9.084140	0.000000	30.000000	0.000000	11.179546	16.818621	6.868487
3.370340E+9	-10.873113	9.496650	9.496650	9.496650	0.000000	30.000000	0.000000	11.593273	17.273600	7.285530
3.370340E+9	-10.873113	9.915245	9.915245	9.915245	0.000000	30.000000	0.000000	11.982664	17.728578	7.605586
3.370340E+9	-10.873113	10.348441	10.348441	10.348441	0.000000	30.000000	0.000000	12.445065	18.146667	7.867450
3.370340E+9	-10.873113	10.785289	10.785289	10.785289	0.000000	30.000000	0.000000	12.858792	18.601645	8.109917
3.370340E+9	-10.873113	11.231871	11.231871	11.231871	0.000000	30.000000	0.000000	13.296856	19.019734	8.507563
3.370340E+9	-10.864591	11.693055	11.693055	11.693055	0.000000	30.000000	0.000000	13.698415	19.425526	8.750030
3.370340E+9	-10.823173	12.150588	12.150588	12.150588	0.000000	30.000000	0.000000	14.148647	19.843614	9.002195
3.370340E+9	-10.812787	12.611772	12.611772	12.611772	0.000000	30.000000	0.000000	14.562374	20.261703	9.302854
3.370340E+9	-10.792307	13.072956	13.072956	13.072956	0.000000	30.000000	0.000000	14.963933	20.655198	9.593815
3.370340E+9	-10.771536	13.490334	13.490334	13.490334	0.000000	30.000000	0.000000	15.353323	21.024099	9.875076
3.370340E+9	-10.749180	13.902845	13.902845	13.902845	0.000000	30.000000	0.000000	15.718377	21.380704	10.136941
3.370340E+9	-10.700994	14.310487	14.310487	14.310487	0.000000	30.000000	0.000000	16.059093	21.786496	10.418202
3.370340E+9	-10.689016	14.704745	14.704745	14.704745	0.000000	30.000000	0.000000	16.387641	22.130804	10.660669
3.370340E+9	-10.659732	15.089268	15.089268	15.089268	0.000000	30.000000	0.000000	16.704021	22.512002	10.874040
3.370340E+9	-10.647749	15.456755	15.456755	15.456755	0.000000	30.000000	0.000000	16.971727	22.868607	11.097110
3.370340E+9	-10.620543	15.812074	15.812074	15.812074	0.000000	30.000000	0.000000	17.251601	23.188322	11.281384
3.370340E+9	-10.570757	16.145489	16.145489	16.145489	0.000000	30.000000	0.000000	17.482801	23.544927	11.475358
3.370340E+9	-10.471181	16.460652	16.460652	16.460652	0.000000	30.000000	0.000000	17.714002	23.889235	11.591742
3.370340E+9	-10.409203	16.756345	16.756345	16.756345	0.000000	30.000000	0.000000	17.920866	24.270433	11.795414
3.370340E+9	-10.347222	17.036219	17.036219	17.036219	0.000000	30.000000	0.000000	18.152066	24.565554	11.921497
3.370340E+9	-10.264720	17.292974	17.292974	17.292974	0.000000	30.000000	0.000000	18.285919	24.922159	12.037881
3.370340E+9	-10.264720	17.531475	17.531475	17.531475	0.000000	30.000000	0.000000	18.444109	25.327951	12.183361
3.370340E+9	-10.163071	17.749290	17.749290	17.749290	0.000000	30.000000	0.000000	18.565793	25.647666	12.231855
3.370340E+9	-10.163071	17.954937	17.954937	17.954937	0.000000	30.000000	0.000000	18.760488	26.041161	12.357938
3.370340E+9	-9.809500	18.142331	18.142331	18.142331	0.000000	30.000000	0.000000	18.845667	26.385469	12.493719
3.370340E+9	-9.718255	18.315123	18.315123	18.315123	0.000000	30.000000	0.000000	18.979520	26.729777	12.513116
3.370340E+9	-9.718255	18.481831	18.481831	18.481831	0.000000	30.000000	0.000000	19.149879	27.037195	12.629500
3.370340E+9	-9.635364	18.629069	18.629069	18.629069	0.000000	30.000000	0.000000	19.186384	27.356910	12.658596
3.370340E+9	-9.528183	18.770223	18.770223	18.770223	0.000000	30.000000	0.000000	19.332405	27.639734	12.755583
3.370340E+9	-9.474535	18.895558	18.895558	18.895558	0.000000	30.000000	0.000000	19.405416	27.799592	12.813775
3.370340E+9	-9.383209	19.022110	19.022110	19.022110	0.000000	30.000000	0.000000	19.551437	27.934856	12.901063
3.370340E+9	-9.309013	19.140144	19.140144	19.140144	0.000000	30.000000	0.000000	19.624448	28.020933	13.036845
3.370340E+9	-9.232857	19.255744	19.255744	19.255744	0.000000	30.000000	0.000000	19.721796	28.070120	13.056242
3.370340E+9	-9.141642	19.365260	19.365260	19.365260	0.000000	30.000000	0.000000	19.855649	28.020933	13.143530
3.370340E+9	-8.944974	19.474776	19.474776	19.474776	0.000000	30.000000	0.000000	19.940828	27.934856	13.172626
3.370340E+9	-8.701397	19.575774	19.575774	19.575774	0.000000	30.000000	0.000000	19.989501	27.799592	13.240517
3.370340E+9	-8.556409	19.671905	19.671905	19.671905	0.000000	30.000000	0.000000	20.111186	27.442987	13.269613
3.370340E+9	-8.556409	19.764385	19.764385	19.764385	0.000000	30.000000	0.000000	20.111186	27.442987	13.269613
3.370340E+9	-8.556409	19.848347	19.848347	19.848347	0.000000	30.000000	0.000000	20.172028	27.160162	13.337504
3.370340E+9	-8.556409	19.929876	19.929876	19.929876	0.000000	30.000000	0.000000	20.220702	26.865041	13.289010
3.370340E+9	-8.556409	20.008971	20.008971	20.008971	0.000000	30.000000	0.000000	20.342386	26.225612	13.356901
3.370340E+9	-8.411432	20.085632	20.085632	20.085632	0.000000	30.000000	0.000000	20.391060	25.869007	13.347203
3.370340E+9	-8.084696	20.157426	20.157426	20.157426	0.000000	30.000000	0.000000	20.439734	25.487808	13.356901
3.370340E+9	-7.999892	20.217051	20.217051	20.217051	0.000000	30.000000	0.000000	20.451902	25.069720	13.356901
3.370340E+9	-7.902993	20.271809	20.271809	20.271809	0.000000	30.000000	0.000000	20.488408	24.663928	13.347203
3.370340E+9	-7.902993	20.327784	20.327784	20.327784	0.000000	30.000000	0.000000	20.549250	24.159763	13.395696
3.370340E+9	-7.861590	20.376458	20.376458	20.376458	0.000000	30.000000	0.000000	20.597924	23.766268	13.376299
3.370340E+9	-7.839106	20.428782	20.428782	20.428782	0.000000	30.000000	0.000000	20.634429	23.323586	13.366600
3.370340E+9	-7.744059	20.479890	20.479890	20.479890	0.000000	30.000000	0.000000	20.683103	22.856310	13.385997
3.370340E+9	-7.744059	20.526130	20.526130	20.526130	0.000000	30.000000	0.000000	20.683103	22.401332	13.405395
3.370340E+9	-7.638804	20.556551	20.556551	20.556551	0.000000	30.000000	0.000000	20.646598	21.946353	13.415093
3.370340E+9	-7.436492	20.590623	20.590623	20.590623	0.000000	30.000000	0.000000	20.731777	21.503671	13.415093
3.370340E+9	-7.006703	20.619827	20.619827	20.619827	0.000000	30.000000	0.000000	20.731777	20.962616	13.395696
3.370340E+9	-7.006703	20.647814	20.647814	20.647814	0.000000	30.000000	0.000000	20.731777	20.569121	13.415093
3.370340E+9	-6.808341	20.672151	20.672151	20.672151	0.000000	30.000000	0.000000	20.731777	20.138735	13.356901
3.370340E+9	-6.688583	20.684320	20.684320	20.684320	0.000000	30.000000	0.000000	20.670934	19.708350	13.221120
3.370340E+9	-6.510626	20.689187	20.689187	20.689187	0.000000	30.000000	0.000000	20.646598	19.241075	13.269613
3.370340E+9	-6.436177	20.680669	20.680669	20.680669	0.000000	30.000000	0.000000	20.549250	18.822986	13.259914
3.370340E+9	-6.351344	20.669718	20.669718	20.669718	0.000000	30.000000	0.000000	20.573587	18.441788	13.240517
3.370340E+9	-6.351344	20.656332	20.656332	20.656332	0.000000	30.000000	0.000000	20.549250	18.072887	13.162928
3.370340E+9	-6.140497	20.640513	20.640513	20.640513	0.000000	30.000000	0.000000	20.488408	17.716282	13.182325
3.370340E+9	-6.140497	20.612526	20.612526	20.612526	0.000000	30.000000	0.000000	20.451902	17.421160	13.114434
3.370340E+9	-6.049635	20.579671	20.579671	20.579671	0.000000	30.000000	0.000000	20.403229	17.175226	12.988351
3.370340E+9	-5.987834	20.546816	20.546816	20.546816	0.000000	30.000000	0.000000	20.403229	16.953885	13.114434
3.370340E+9	-5.944594	20.510311	20.510311	20.510311	0.000000	30.000000	0.000000	20.366723	16.867808	13.046544
3.370340E+9	-5.882705	20.482324	20.482324	20.482324	0.000000	30.000000	0.000000	20.391060	16.781731	13.056242
3.370340E+9	-5.814783	20.456770	20.456770	20.456770	0.000000	30.000000	0.000000	20.391060	16.732544	13.017448
3.370340E+9	-5.723992	20.442168	20.442168	20.442168	0.000000	30.000000	0.000000	20.403229	16.769434	13.056242
3.370340E+9	-5.534147	20.429999	20.429999	20.429999	0.000000	30.000000	0.000000	20.451902	17.089149	13.036845
3.370340E+9	-5.534147	20.423915	20.423915	20.423915	0.000000	30.000000	0.000000	20.488408	17.310490	13.046544
3.370340E+9	-5.410340	20.427566	20.427566	20.427566	0.000000	30.000000	0.000000	20.524913	17.593314	13.085338
3.370340E+9	-5.135890	20.437300	20.437300	20.437300	0.000000	30.000000	0.000000	20.549250	17.913029	13.095037
3.370340E+9	-5.065619	20.460420	20.460420	20.460420	0.000000	30.000000	0.000000	20.634429	18.245041	13.114434
3.370340E+9	-5.065619	20.488408	20.488408	20.488408	0.000000	30.000000	0.000000	20.683103	18.650832	13.192024
3.370340E+9	-5.065619	20.524913	20.524913	20.524913	0.000000	30.000000	0.000000	20.731777	19.105811	13.221120
3.370340E+9	-5.065619	20.568720	20.568720	20.568720	0.000000	30.000000	0.000000	20.829124	19.560790	13.153229
3.370340E+9	-4.758088	20.617393	20.617393	20.617393	0.000000	30.000000	0.000000	20.877798	20.138735	13.230818
3.370340E+9	-4.758088	20.672151	20.672151	20.672151	0.000000	30.000000	0.000000	20.950809	20.581417	13.289010
3.370340E+9	-4.673451	20.726909	20.726909	20.726909	0.000000	30.000000	0.000000	20.999483	21.134770	13.308408
3.370340E+9	-4.580630	20.787752	20.787752	20.787752	0.000000	30.000000	0.000000	21.096830	21.712715	13.385997
3.370340E+9	-4.510520	20.849811	20.849811	20.849811	0.000000	30.000000	0.000000	21.145504	22.327551	13.415093
3.370340E+9	-4.438387	20.921604	20.921604	20.921604	0.000000	30.000000	0.000000	21.267188	22.856310	13.444189
3.370340E+9	-4.341450	20.984880	20.984880	20.984880	0.000000	30.000000	0.000000	21.267188	23.471146	13.482984
3.370340E+9	-4.236529	21.049373	21.049373	21.049373	0.000000	30.000000	0.000000	21.328031	24.122872	13.550875
3.370340E+9	-4.158132	21.119950	21.119950	21.119950	0.000000	30.000000	0.000000	21.437547	25.315654	13.638163
3.370340E+9	-4.032567	21.183226	21.183226	21.183226	0.000000	30.000000	0.000000	21.461884	25.942787	13.715752
3.370340E+9	-4.032567	21.241635	21.241635	21.241635	0.000000	30.000000	0.000000	21.461884	25.942787	13.715752
3.370340E+9	-4.032567	21.298826	21.298826	21.298826	0.000000	30.000000	0.000000	21.522726	26.520733	13.657560
3.370340E+9	-4.032567	21.363319	21.363319	21.363319	0.000000	30.000000	0.000000	21.644410	27.590547	13.570272
3.370340E+9	-4.032567	21.425378	21.425378	21.425378	0.000000	30.000000	0.000000	21.717421	28.045526	13.589669
3.370340E+9	-4.032567	21.493522	21.493522	21.493522	0.000000	30.000000	0.000000	21.826937	28.463615	13.541176
3.370340E+9	-4.032567	21.561665	21.561665	21.561665	0.000000	30.000000	0.000000	21.948621	28.771033	13.609067
3.370340E+9	-4.032567	21.641977	21.641977	21.641977	0.000000	30.000000	0.000000	22.070306	29.004670	13.667259
3.370340E+9	-4.032567	21.730806	21.730806	21.730806	0.000000	30.000000	0.000000	22.216327	29.127638	13.715752
3.370340E+9	-4.032567	21.819636	21.819636	21.819636	0.000000	30.000000	0.000000	22.325843	29.262901	13.803040
3.370340E+9	-4.032567	21.918200	21.918200	21.918200	0.000000	30.000000	0.000000	22.447528	29.287495	13.880630
3.370340E+9	-4.032567	22.026499	22.026499	22.026499	0.000000	30.000000	0.000000	22.544875	29.262901	13.967918
3.370340E+9	-3.131135	22.133582	22.133582	22.133582	0.000000	30.000000	0.000000	22.593549	29.189121	13.997014
3.370340E+9	-2.972565	22.224845	22.224845	22.224845	0.000000	30.000000	0.000000	22.557044	29.103044	14.006713
3.370340E+9	-2.972565	22.292988	22.292988	22.292988	0.000000	30.000000	0.000000	22.398854	28.967780	14.006713
3.370340E+9	-2.809726	22.333144	22.333144	22.333144	0.000000	30.000000	0.000000	22.228496	28.721846	13.987315
3.370340E+9	-2.809726	22.344096	22.344096	22.344096	0.000000	30.000000	0.000000	22.058137	28.586582	13.938822
3.370340E+9	-2.648863	22.319759	22.319759	22.319759	0.000000	30.000000	0.000000	21.826937	28.377538	13.909726
3.370340E+9	-2.489994	22.265001	22.265001	22.265001	0.000000	30.000000	0.000000	21.668747	28.131603	13.841835
3.370340E+9	-2.295775	22.187123	22.187123	22.187123	0.000000	30.000000	0.000000	21.547063	27.811888	13.870931
3.370340E+9	-2.178082	22.070306	22.070306	22.070306	0.000000	30.000000	0.000000	21.279357	27.553657	13.880630
3.370340E+9	-1.998573	21.942537	21.942537	21.942537	0.000000	30.000000	0.000000	21.267188	27.233943	13.919424
3.370340E+9	-1.924379	21.794082	21.794082	21.794082	0.000000	30.000000	0.000000	21.108999	26.840448	13.938822
3.370340E+9	-1.825081	21.640760	21.640760	21.640760	0.000000	30.000000	0.000000	21.023819	26.520733	13.967918
3.370340E+9	-1.742806	21.491088	21.491088	21.491088	0.000000	30.000000	0.000000	20.902135	26.139535	13.967918
3.370340E+9	-1.742806	21.351151	21.351151	21.351151	0.000000	30.000000	0.000000	20.829124	25.758336	13.773944
3.370340E+9	-1.742806	21.222165	21.222165	21.222165	0.000000	30.000000	0.000000	20.768282	25.389435	13.880630
3.370340E+9	-1.527845	21.105348	21.105348	21.105348	0.000000	30.000000	0.000000	20.658766	24.959049	13.861232
3.370340E+9	-1.527845	21.008000	21.008000	21.008000	0.000000	30.000000	0.000000	20.695271	24.590148	13.822438
3.370340E+9	-1.463681	20.920388	20.920388	20.920388	0.000000	30.000000	0.000000	20.670934	24.159763	13.793342
3.370340E+9	-1.397486	20.863196	20.863196	20.863196	0.000000	30.000000	0.000000	20.707440	23.729377	13.803040
3.370340E+9	-1.320921	20.807221	20.807221	20.807221	0.000000	30.000000	0.000000	20.707440	23.323586	13.803040
3.370340E+9	-1.271818	20.764632	20.764632	20.764632	0.000000	30.000000	0.000000	20.683103	22.954684	13.744848
3.370340E+9	-1.154148	20.730560	20.730560	20.730560	0.000000	30.000000	0.000000	20.683103	22.524299	13.783643
3.370340E+9	-1.100342	20.703789	20.703789	20.703789	0.000000	30.000000	0.000000	20.634429	22.118507	13.725451
3.370340E+9	-1.015796	20.681886	20.681886	20.681886	0.000000	30.000000	0.000000	20.610092	21.294627	13.638163
3.370340E+9	-0.949585	20.666067	20.666067	20.666067	0.000000	30.000000	0.000000	20.610092	21.294627	13.638163
3.370340E+9	-0.896089	20.659983	20.659983	20.659983	0.000000	30.000000	0.000000	20.597924	20.901132	13.657560
3.370340E+9	-0.832236	20.646598	20.646598	20.646598	0.000000	30.000000	0.000000	20.561418	20.470747	13.618765
3.370340E+9	-0.776347	20.640513	20.640513	20.640513	0.000000	30.000000	0.000000	20.610092	19.708350	13.589669
3.370340E+9	-0.722854	20.640513	20.640513	20.640513	0.000000	30.000000	0.000000	20.707440	19.228778	13.657560
3.370340E+9	-0.666988	20.655116	20.655116	20.655116	0.000000	30.000000	0.000000	20.853461	18.786096	13.764246
3.370340E+9	-0.625909	20.683103	20.683103	20.683103	0.000000	30.000000	0.000000	20.962977	18.331118	13.851534
3.370340E+9	-0.592785	20.730560	20.730560	20.730560	0.000000	30.000000	0.000000	21.157672	17.913029	13.870931
3.370340E+9	-0.559684	20.799920	20.799920	20.799920	0.000000	30.000000	0.000000	21.328031	17.470347	14.035809
3.370340E+9	-0.549329	20.887533	20.887533	20.887533	0.000000	30.000000	0.000000	21.486220	17.076852	14.152193
3.370340E+9	-0.516226	20.992181	20.992181	20.992181	0.000000	30.000000	0.000000	21.656579	16.671061	14.239481
3.370340E+9	-0.505871	21.111432	21.111432	21.111432	0.000000	30.000000	0.000000	21.790432	16.314456	14.346166
3.370340E+9	-0.483098	21.246502	21.246502	21.246502	0.000000	30.000000	0.000000	21.912116	15.970148	14.404358
3.370340E+9	-0.464800	21.384005	21.384005	21.384005	0.000000	30.000000	0.000000	21.985127	15.711916	14.540140
3.370340E+9	-0.442028	21.522726	21.522726	21.522726	0.000000	30.000000	0.000000	22.094643	15.441389	14.511044
3.370340E+9	-0.396482	21.654145	21.654145	21.654145	0.000000	30.000000	0.000000	22.167653	15.318421	14.578934
3.370340E+9	-0.353019	21.783131	21.783131	21.783131	0.000000	30.000000	0.000000	22.252833	15.232344	14.627428
3.370340E+9	-0.289180	21.899948	21.899948	21.899948	0.000000	30.000000	0.000000	22.325843	15.207751	14.637127
3.370340E+9	-0.225345	22.007030	22.007030	22.007030	0.000000	30.000000	0.000000	22.398854	15.281531	14.714716
3.370340E+9	-0.146676	22.105594	22.105594	22.105594	0.000000	30.000000	0.000000	22.471865	15.379905	14.772908
3.370340E+9	-0.082843	22.200508	22.200508	22.200508	0.000000	30.000000	0.000000	22.605718	15.564356	14.734113
3.370340E+9	-0.037281	22.290555	22.290555	22.290555	0.000000	30.000000	0.000000	22.690897	15.687323	14.879593
3.370340E+9	0.036887	22.379384	22.378834	22.379384	0.006054	30.000000	0.000000	22.800413	16.019334	14.937786
3.370340E+9	0.077931	22.471865	22.470697	22.471865	0.012846	30.000000	0.000000	22.909929	16.302159	15.025074
3.370340E+9	0.133835	22.563128	22.561114	22.563128	0.022155	30.000000	0.000000	23.007276	16.621874	15.063868
3.370340E+9	0.133835	22.660476	22.658453	22.660476	0.022250	30.000000	0.000000	23.141129	16.966182	15.151156
3.370340E+9	0.133835	22.754173	22.752142	22.754173	0.022342	30.000000	0.000000	23.189803	17.359677	15.228746
3.370340E+9	0.133835	22.862472	22.860431	22.862472	0.022448	30.000000	0.000000	23.408835	17.753172	15.345130
3.370340E+9	0.133835	22.974421	22.972371	22.974421	0.022558	30.000000	0.000000	23.518351	18.146667	15.432418
3.370340E+9	0.162436	23.093672	23.091170	23.093672	0.027524	30.000000	0.000000	23.664372	18.638536	15.548802
3.370340E+9	0.251816	23.205622	23.201723	23.205622	0.042889	30.000000	0.000000	23.725215	19.081217	15.655488
3.370340E+9	0.251816	23.326090	23.322170	23.326090	0.043111	30.000000	0.000000	23.895573	19.597680	15.577898
3.370340E+9	0.277967	23.452641	23.448291	23.452641	0.047851	30.000000	0.000000	24.065931	20.606011	15.907653
3.370340E+9	0.303192	23.568242	23.563473	23.568242	0.052455	30.000000	0.000000	24.065931	20.606011	15.907653
3.370340E+9	0.303192	23.686276	23.681483	23.686276	0.052718	30.000000	0.000000	24.187616	21.159363	16.014339
3.370340E+9	0.321437	23.805526	23.800420	23.805526	0.056175	30.000000	0.000000	24.333637	21.712715	16.082229
3.370340E+9	0.377348	23.949114	23.943082	23.949114	0.066356	30.000000	0.000000	24.625680	22.807123	16.353792
3.370340E+9	0.389788	24.084184	24.077917	24.084184	0.068933	30.000000	0.000000	24.759533	23.360476	16.344094
3.370340E+9	0.418371	24.224121	24.217355	24.224121	0.074425	30.000000	0.000000	24.917723	23.889235	16.528369
3.370340E+9	0.461844	24.364058	24.356545	24.364058	0.082645	30.000000	0.000000	25.063744	24.479477	16.605958
3.370340E+9	0.472189	24.511296	24.503568	24.511296	0.085010	30.000000	0.000000	25.197597	24.983643	16.838726
3.370340E+9	0.505320	24.660968	24.652646	24.660968	0.091540	30.000000	0.000000	25.392292	25.487808	16.935713
3.370340E+9	0.544240	24.806990	24.797973	24.806990	0.099187	30.000000	0.000000	25.526145	25.918194	17.071494
3.370340E+9	0.577370	24.971264	24.961633	24.971264	0.105933	30.000000	0.000000	25.708672	26.311689	17.197577
3.370340E+9	0.600156	25.139188	25.129110	25.139188	0.110863	30.000000	0.000000	25.866861	26.619107	17.323660
3.370340E+9	0.631192	25.311980	25.301307	25.311980	0.117410	30.000000	0.000000	26.061557	26.865041	17.420647
3.370340E+9	0.649415	25.471387	25.460335	25.471387	0.121567	30.000000	0.000000	26.219746	27.049492	17.537031
3.370340E+9	0.685016	25.633227	25.621494	25.633227	0.129062	30.000000	0.000000	26.377936	27.147866	17.663114
3.370340E+9	0.703236	25.793851	25.781730	25.793851	0.133333	30.000000	0.000000	26.523958	27.221646	17.740703
3.370340E+9	0.749186	25.953257	25.940262	25.953257	0.142945	30.000000	0.000000	26.657810	27.258536	17.924978
3.370340E+9	0.792670	26.117531	26.103693	26.117531	0.152221	30.000000	0.000000	26.840337	27.209349	17.992869
3.370340E+9	0.818752	26.269637	26.255259	26.269637	0.158159	30.000000	0.000000	26.913348	27.123272	18.118952
3.370340E+9	0.844024	26.424176	26.409266	26.424176	0.164014	30.000000	0.000000	27.071538	26.963415	18.196541
3.370340E+9	0.877153	26.577499	26.561911	26.577499	0.171460	30.000000	0.000000	27.241896	26.778964	18.303226
3.370340E+9	0.916060	26.728387	26.712014	26.728387	0.180105	30.000000	0.000000	27.375749	26.545326	18.400213
3.370340E+9	0.959545	26.873192	26.855946	26.873192	0.189704	30.000000	0.000000	27.509602	26.311689	18.516597
3.370340E+9	1.003032	27.014346	26.996221	27.014346	0.199372	30.000000	0.000000	27.631286	26.041161	18.594187
3.370340E+9	1.056865	27.156717	27.137515	27.156717	0.211218	30.000000	0.000000	27.801645	25.696853	18.691174
3.370340E+9	1.110699	27.289353	27.269071	27.289353	0.223101	30.000000	0.000000	27.850318	25.340248	18.749366
3.370340E+9	1.172383	27.419555	27.398040	27.419555	0.236664	30.000000	0.000000	27.959834	25.069720	18.846352
3.370340E+9	1.226219	27.538806	27.516201	27.538806	0.248653	30.000000	0.000000	28.032845	24.651631	18.836654
3.370340E+9	1.265111	27.658057	27.634631	27.658057	0.257684	30.000000	0.000000	28.105856	24.270433	18.846352
3.370340E+9	1.265111	27.763922	27.740407	27.763922	0.258670	30.000000	0.000000	28.130193	23.926125	18.933640
3.370340E+9	1.321047	27.850318	27.825682	27.850318	0.270998	30.000000	0.000000	28.105856	23.557223	18.856051
3.370340E+9	1.321047	27.928196	27.903491	27.928196	0.271756	30.000000	0.000000	28.154530	23.151432	18.807558
3.370340E+9	1.321047	27.975653	27.950906	27.975653	0.272218	30.000000	0.000000	27.984171	22.364442	18.671776
3.370340E+9	1.676334	28.010942	27.979462	28.010942	0.346277	30.000000	0.000000	27.984171	22.364442	18.671776
3.370340E+9	1.676334	28.023110	27.991617	28.023110	0.346427	30.000000	0.000000	27.923329	22.007837	18.613584
3.370340E+9	1.737987	28.021893	27.989236	28.021893	0.359227	30.000000	0.000000	27.838150	21.208550	18.565091
3.370340E+9	1.909846	28.009725	27.973834	28.009725	0.394805	30.000000	0.000000	27.838150	20.815055	18.487501
3.370340E+9	1.976140	27.995123	27.957997	27.995123	0.408387	30.000000	0.000000	27.886824	20.446153	18.535995
3.370340E+9	2.029985	27.979304	27.941181	27.979304	0.419353	30.000000	0.000000	27.947666	20.064955	18.574789
3.370340E+9	2.060569	27.967135	27.928451	27.967135	0.425530	30.000000	0.000000	28.008508	19.646867	18.584488
3.370340E+9	2.096285	27.965919	27.926561	27.965919	0.432938	30.000000	0.000000	28.093687	19.265668	18.652379
3.370340E+9	2.137202	27.970786	27.930647	27.970786	0.441526	30.000000	0.000000	28.203203	18.884470	18.729968
3.370340E+9	2.157923	28.004858	27.964278	28.004858	0.446381	30.000000	0.000000	28.324888	18.503272	18.817256
3.370340E+9	2.180712	28.052315	28.011233	28.052315	0.451894	30.000000	0.000000	28.458741	18.060590	18.894846
3.370340E+9	2.211288	28.114374	28.072620	28.114374	0.459291	30.000000	0.000000	28.543920	17.753172	18.972435
3.370340E+9	2.262579	28.199553	28.156694	28.199553	0.471450	30.000000	0.000000	28.689941	17.445754	19.030627
3.370340E+9	2.262579	28.293250	28.250248	28.293250	0.473016	30.000000	0.000000	28.775120	17.175226	19.020929
3.370340E+9	2.393108	28.389381	28.343724	28.389381	0.502224	30.000000	0.000000	28.848131	16.941588	19.098518
3.370340E+9	2.393108	28.478210	28.432411	28.478210	0.503796	30.000000	0.000000	28.835963	16.781731	19.108217
3.370340E+9	2.564539	28.574341	28.525066	28.574341	0.542020	30.000000	0.000000	28.969816	16.671061	19.156710
3.370340E+9	2.564539	28.664388	28.614958	28.664388	0.543728	30.000000	0.000000	28.994152	16.597280	19.176107
3.370340E+9	2.700658	28.748350	28.696120	28.748350	0.574528	30.000000	0.000000	29.042826	16.634170	19.234299
3.370340E+9	2.744174	28.825011	28.771790	28.825011	0.585428	30.000000	0.000000	29.091500	16.707951	19.224601
3.370340E+9	2.744174	28.896805	28.843452	28.896805	0.586886	30.000000	0.000000	29.176679	16.867808	19.098518
3.370340E+9	2.807894	28.968599	28.913859	28.968599	0.602135	30.000000	0.000000	29.261858	17.039962	19.311889
3.370340E+9	2.917194	29.036742	28.979717	29.036742	0.627275	30.000000	0.000000	29.371374	17.261303	19.408876
3.370340E+9	2.950376	29.110970	29.053142	29.110970	0.636103	30.000000	0.000000	29.517396	17.531831	19.467068
3.370340E+9	3.003699	29.196149	29.137093	29.196149	0.649611	30.000000	0.000000	29.699922	17.839249	19.583452
3.370340E+9	3.003699	29.298364	29.239101	29.298364	0.651886	30.000000	0.000000	29.858112	18.195854	19.777425
3.370340E+9	3.047213	29.410313	29.349954	29.410313	0.663954	30.000000	0.000000	30.089313	18.552459	19.903508
3.370340E+9	3.065271	29.541733	29.480740	29.541733	0.670914	30.000000	0.000000	30.308345	18.958250	20.078084
3.370340E+9	3.077735	29.691405	29.629852	29.691405	0.677083	30.000000	0.000000	30.539545	19.413229	20.281757
3.370340E+9	3.092805	29.864196	29.801979	29.864196	0.684393	30.000000	0.000000	30.819420	19.843614	20.475730
3.370340E+9	3.092805	30.054024	29.991411	30.054024	0.688743	30.000000	0.000000	31.074957	20.360076	20.718197
3.370340E+9	3.100531	30.262105	30.198899	30.262105	0.695262	30.000000	0.000000	31.342663	20.864242	20.883075
3.370340E+9	3.100531	30.487221	30.423545	30.487221	0.700434	30.000000	0.000000	31.622537	21.380704	21.135240
3.370340E+9	3.100531	30.728156	30.663977	30.728156	0.705969	30.000000	0.000000	31.926748	21.909463	21.377707
3.370340E+9	3.123327	31.004380	30.939143	31.004380	0.717608	30.000000	0.000000	32.462160	23.040761	21.814148
3.370340E+9	3.174561	31.292772	31.225837	31.292772	0.736291	30.000000	0.000000	32.742035	23.581817	21.998422
3.370340E+9	3.197357	31.558044	31.490052	31.558044	0.747922	30.000000	0.000000	32.742035	23.581817	21.998422
3.370340E+9	3.218073	31.862256	31.793158	31.862256	0.760077	30.000000	0.000000	33.350457	24.627038	22.609439
3.370340E+9	3.218073	32.173768	32.103994	32.173768	0.767508	30.000000	0.000000	33.654668	25.069720	22.764618
3.370340E+9	3.248585	32.488931	32.417798	32.488931	0.782455	30.000000	0.000000	33.971048	25.487808	23.007085
3.370340E+9	3.248585	32.807744	32.735914	32.807744	0.790133	30.000000	0.000000	34.263091	25.893600	23.201059
3.370340E+9	3.248585	33.128991	33.056458	33.128991	0.797870	30.000000	0.000000	34.555133	26.225612	23.501718
3.370340E+9	3.274054	33.447805	33.373992	33.447805	0.811934	30.000000	0.000000	34.810671	26.545326	23.647198
3.370340E+9	3.314892	33.764184	33.688734	33.764184	0.829951	30.000000	0.000000	35.090545	26.828151	23.850870
3.370340E+9	3.314892	34.044059	33.967983	34.044059	0.836831	30.000000	0.000000	35.260903	27.049492	24.073940
3.370340E+9	3.350696	34.317849	34.240324	34.317849	0.852775	30.000000	0.000000	35.479935	27.209349	24.200022
3.370340E+9	3.381203	34.611108	34.532201	34.611108	0.867982	30.000000	0.000000	35.674631	27.406097	24.345503
3.370340E+9	3.424717	34.856911	34.776409	34.856911	0.885526	30.000000	0.000000	35.808484	27.590547	24.442489
3.370340E+9	3.491031	35.086895	35.004274	35.086895	0.908832	30.000000	0.000000	35.954505	27.738108	24.461887
3.370340E+9	3.491031	35.291325	35.208222	35.291325	0.914127	30.000000	0.000000	36.015347	27.885669	24.500681
3.370340E+9	3.491031	35.464117	35.380607	35.464117	0.918603	30.000000	0.000000	35.991010	28.033229	24.549175
3.370340E+9	3.491031	35.615005	35.531141	35.615005	0.922511	30.000000	0.000000	36.064021	28.180790	24.539476
3.370340E+9	3.611193	35.746425	35.659318	35.746425	0.958174	30.000000	0.000000	36.124863	28.242274	24.520079
3.370340E+9	4.094079	35.849856	35.750654	35.849856	1.091221	30.000000	0.000000	36.124863	28.402131	24.529777
3.370340E+9	4.226720	35.941120	35.838397	35.941120	1.129949	30.000000	0.000000	36.173537	28.475911	24.529777
3.370340E+9	4.445742	36.015347	35.906998	36.015347	1.191838	30.000000	0.000000	36.222211	28.525098	24.345503
3.370340E+9	4.445742	36.073756	35.965231	36.073756	1.193771	30.000000	0.000000	36.258716	28.574285	24.578271
3.370340E+9	4.547953	36.121213	36.010009	36.121213	1.223246	30.000000	0.000000	36.283053	28.611175	24.617066
3.370340E+9	4.629458	36.168670	36.055293	36.168670	1.247149	30.000000	0.000000	36.429075	28.598879	24.636463
3.370340E+9	4.685474	36.220994	36.106057	36.220994	1.264305	30.000000	0.000000	36.538591	28.598879	24.646162
3.370340E+9	4.731085	36.286704	36.170420	36.286704	1.279126	30.000000	0.000000	36.648107	28.537395	24.801340
3.370340E+9	4.787107	36.356064	36.238155	36.356064	1.296992	30.000000	0.000000	36.757623	28.525098	24.840135
3.370340E+9	4.863746	36.430291	36.310220	36.430291	1.320790	30.000000	0.000000	36.867139	28.525098	24.840135
3.370340E+9	4.948001	36.513037	36.390573	36.513037	1.347106	30.000000	0.000000	36.952318	28.537395	24.937122
3.370340E+9	5.024636	36.599433	36.474745	36.599433	1.371563	30.000000	0.000000	37.037497	28.537395	25.043807
3.370340E+9	5.146886	36.687046	36.558966	36.687046	1.408881	30.000000	0.000000	37.098339	28.561988	25.034109
3.370340E+9	5.287764	36.777092	36.645120	36.777092	1.451690	30.000000	0.000000	37.159182	28.611175	25.072903
3.370340E+9	5.430735	36.869572	36.733626	36.869572	1.495416	30.000000	0.000000	37.207855	28.635769	25.082602
3.370340E+9	5.430735	36.951101	36.814854	36.951101	1.498722	30.000000	0.000000	37.244361	28.697252	25.140794
3.370340E+9	5.430735	37.020461	36.883958	37.020461	1.501536	30.000000	0.000000	37.232192	28.758736	25.072903
3.370340E+9	5.430735	37.081303	36.944576	37.081303	1.504003	30.000000	0.000000	37.256529	28.844813	25.043807
3.370340E+9	5.573707	37.134845	36.994247	37.134845	1.546578	30.000000	0.000000	37.293034	28.832516	25.024410
3.370340E+9	6.037180	37.185952	37.033213	37.185952	1.680132	30.000000	0.000000	37.378214	28.807923	24.995314
3.370340E+9	6.037180	37.229759	37.076839	37.229759	1.682111	30.000000	0.000000	37.390382	28.857110	25.111698
3.370340E+9	6.126334	37.273565	37.118158	37.273565	1.709478	30.000000	0.000000	37.475561	28.844813	25.063205
3.370340E+9	6.292116	37.327106	37.167174	37.327106	1.759252	30.000000	0.000000	37.633751	28.795626	25.082602
3.370340E+9	6.368740	37.385515	37.223339	37.385515	1.783928	30.000000	0.000000	37.743267	28.734142	25.150493
3.370340E+9	6.450366	37.448791	37.284213	37.448791	1.810353	30.000000	0.000000	37.840615	28.709549	25.179589
3.370340E+9	6.513803	37.515717	37.349188	37.515717	1.831820	30.000000	0.000000	37.913625	28.672659	25.208685
3.370340E+9	6.569873	37.592378	37.424040	37.592378	1.851718	30.000000	0.000000	37.998805	28.648065	25.363864
3.370340E+9	6.615505	37.675124	37.505217	37.675124	1.868974	30.000000	0.000000	38.083984	28.598879	25.286274
3.370340E+9	6.683956	37.756652	37.584576	37.756652	1.892840	30.000000	0.000000	38.108321	28.611175	25.325069
3.370340E+9	6.750304	37.836964	37.662771	37.836964	1.916129	30.000000	0.000000	38.181331	28.623472	25.305672
3.370340E+9	6.839472	37.922143	37.745198	37.922143	1.946402	30.000000	0.000000	38.242174	28.611175	25.325069
3.370340E+9	6.953917	38.000021	37.819675	38.000021	1.983810	30.000000	0.000000	38.254342	28.648065	25.237781
3.370340E+9	7.068841	38.062080	37.878382	38.062080	2.020681	30.000000	0.000000	38.254342	28.660362	25.208685
3.370340E+9	7.068841	38.118055	37.934087	38.118055	2.023653	30.000000	0.000000	38.303016	28.672659	25.218384
3.370340E+9	7.282560	38.170380	37.980450	38.170380	2.089222	30.000000	0.000000	38.363858	28.598879	25.198986
3.370340E+9	7.338650	38.220270	38.028591	38.220270	2.108469	30.000000	0.000000	38.412532	28.660362	25.150493
3.370340E+9	7.450651	38.264077	38.069175	38.264077	2.143922	30.000000	0.000000	38.436869	28.672659	25.150493
3.370340E+9	7.450651	38.301799	38.106705	38.301799	2.146036	30.000000	0.000000	38.461206	28.660362	25.111698
3.370340E+9	7.580375	38.344389	38.145589	38.344389	2.186798	30.000000	0.000000	38.534216	28.623472	25.121397
3.370340E+9	7.580375	38.374810	38.175852	38.374810	2.188533	30.000000	0.000000	38.485543	28.635769	25.160191
3.370340E+9	7.646722	38.416182	38.215221	38.416182	2.210570	30.000000	0.000000	38.655901	28.611175	25.179589
3.370340E+9	7.723321	38.463639	38.260361	38.463639	2.236058	30.000000	0.000000	38.728912	28.561988	25.189288
3.370340E+9	7.789668	38.513530	38.308193	38.513530	2.258704	30.000000	0.000000	38.753248	28.586582	25.198986
3.370340E+9	7.901662	38.563421	38.354782	38.563421	2.295026	30.000000	0.000000	38.801922	28.598879	25.237781
3.370340E+9	7.968009	38.616962	38.406231	38.616962	2.318036	30.000000	0.000000	38.899270	28.623472	25.072903
3.370340E+9	8.067424	38.674153	38.460405	38.674153	2.351234	30.000000	0.000000	38.984449	28.598879	25.179589
3.370340E+9	8.208076	38.730128	38.512233	38.730128	2.396844	30.000000	0.000000	38.996617	28.672659	25.179589
3.370340E+9	8.381267	38.794621	38.571626	38.794621	2.452949	30.000000	0.000000	39.106133	28.697252	25.169890
3.370340E+9	8.381267	38.857897	38.634538	38.857897	2.456950	30.000000	0.000000	39.166976	28.734142	25.198986
3.370340E+9	8.381267	38.929691	38.705919	38.929691	2.461489	30.000000	0.000000	39.203481	28.771033	25.247480
3.370340E+9	8.381267	38.986883	38.762782	38.986883	2.465105	30.000000	0.000000	39.227818	28.844813	25.179589
3.370340E+9	8.493954	39.040424	38.812910	39.040424	2.502647	30.000000	0.000000	39.264323	28.894000	25.082602
3.370340E+9	8.826395	39.095182	38.858162	39.095182	2.607218	30.000000	0.000000	39.300829	28.955483	25.169890
3.370340E+9	8.933184	39.147506	38.907210	39.147506	2.643263	30.000000	0.000000	39.325166	29.053857	25.198986
3.370340E+9	9.035661	39.197397	38.953948	39.197397	2.677935	30.000000	0.000000	39.398176	29.152231	25.140794
3.370340E+9	9.204493	39.242420	38.993994	39.242420	2.732692	30.000000	0.000000	39.434682	29.238308	25.218384
3.370340E+9	9.204493	39.289877	39.041150	39.289877	2.735996	30.000000	0.000000	39.471187	29.262901	25.189288
3.370340E+9	9.314103	39.332467	39.080410	39.332467	2.772624	30.000000	0.000000	39.532029	29.373572	25.228082
3.370340E+9	9.378319	39.376273	39.122140	39.376273	2.795466	30.000000	0.000000	39.605040	29.459649	25.208685
3.370340E+9	9.467479	39.426164	39.169210	39.426164	2.826486	30.000000	0.000000	39.702388	29.508836	25.247480
3.370340E+9	9.556639	39.479705	39.219900	39.479705	2.857856	30.000000	0.000000	39.763230	29.558023	25.305672
3.370340E+9	9.645796	39.535680	39.272998	39.535680	2.889494	30.000000	0.000000	39.824072	29.619506	25.354165
3.370340E+9	9.732823	39.597739	39.332192	39.597739	2.921016	30.000000	0.000000	39.921420	29.705583	25.402658
3.370340E+9	9.856027	39.673183	39.403648	39.673183	2.964886	30.000000	0.000000	40.079609	29.803957	25.431754
3.370340E+9	9.932571	39.744977	39.472785	39.744977	2.994109	30.000000	0.000000	40.116115	29.865441	25.499645
3.370340E+9	10.052621	39.820421	39.544303	39.820421	3.037307	30.000000	0.000000	40.189126	30.037595	25.528741
3.370340E+9	10.132324	39.899516	39.620579	39.899516	3.068313	30.000000	0.000000	40.262136	30.074485	25.548139
3.370340E+9	10.264979	39.982262	39.698957	39.982262	3.116356	30.000000	0.000000	40.359484	30.197452	25.557837
3.370340E+9	10.397626	40.057706	39.770067	40.057706	3.164032	30.000000	0.000000	40.359484	30.345013	25.674221
3.370340E+9	10.533465	40.129500	39.837444	40.129500	3.212620	30.000000	0.000000	40.420326	30.492573	25.577235
3.370340E+9	10.676305	40.204945	39.908225	40.204945	3.263917	30.000000	0.000000	40.517674	30.590947	25.616029
3.370340E+9	10.822351	40.279172	39.977686	40.279172	3.316348	30.000000	0.000000	40.566347	30.726211	25.577235
3.370340E+9	10.942361	40.350966	40.045466	40.350966	3.360495	30.000000	0.000000	40.639358	30.849178	25.606331
3.370340E+9	11.075790	40.413025	40.103182	40.413025	3.408277	30.000000	0.000000	40.700200	30.972146	25.586933
3.370340E+9	11.129479	40.478735	40.166825	40.478735	3.431004	30.000000	0.000000	40.773211	31.082816	25.616029
3.370340E+9	11.198724	40.543227	40.228802	40.543227	3.458680	30.000000	0.000000	40.834053	31.230377	25.596632
3.370340E+9	11.275531	40.606503	40.289343	40.606503	3.488765	30.000000	0.000000	40.894896	31.279564	25.645125
3.370340E+9	11.352021	40.669779	40.349885	40.669779	3.518837	30.000000	0.000000	40.992243	31.377937	25.703317
3.370340E+9	11.441443	40.740356	40.417283	40.740356	3.553811	30.000000	0.000000	41.065254	31.513201	25.742112
3.370340E+9	11.507741	40.813367	40.487764	40.813367	3.581633	30.000000	0.000000	41.150433	31.586982	25.751811
3.370340E+9	11.620805	40.888811	40.559272	40.888811	3.624929	30.000000	0.000000	41.272118	31.685355	25.693619
3.370340E+9	11.761452	40.961822	40.627536	40.961822	3.677146	30.000000	0.000000	41.296455	31.832916	25.810003
3.370340E+9	11.864020	41.043351	40.705358	41.043351	3.717919	30.000000	0.000000	41.454644	31.931290	25.810003
3.370340E+9	12.058307	41.134614	40.790090	41.134614	3.789761	30.000000	0.000000	41.612834	32.152631	25.974880
3.370340E+9	12.058307	41.218576	40.873349	41.218576	3.797497	30.000000	0.000000	41.612834	32.152631	25.974880
3.370340E+9	12.058307	41.301322	40.955402	41.301322	3.805120	30.000000	0.000000	41.661508	32.263301	25.887592
3.370340E+9	12.416675	41.390152	41.032740	41.390152	3.931528	30.000000	0.000000	41.783193	32.337082	25.829400
3.370340E+9	12.542047	41.483849	41.121853	41.483849	3.981950	30.000000	0.000000	41.929214	32.558423	25.868195
3.370340E+9	12.542047	41.587280	41.224382	41.587280	3.991878	30.000000	0.000000	42.099572	32.656796	25.877894
3.370340E+9	12.677586	41.693146	41.325219	41.693146	4.047198	30.000000	0.000000	42.209088	32.792060	25.790606
3.370340E+9	12.770007	41.797795	41.426136	41.797795	4.088249	30.000000	0.000000	42.318604	32.865841	25.877894
3.370340E+9	12.867104	41.908528	41.532924	41.908528	4.131644	30.000000	0.000000	42.403784	33.025698	25.858496
3.370340E+9	13.026699	42.013176	41.631752	42.013176	4.195668	30.000000	0.000000	42.501131	33.136368	25.839099
3.370340E+9	13.146571	42.108090	41.722125	42.108090	4.245616	30.000000	0.000000	42.561973	33.234742	25.877894
3.370340E+9	13.269835	42.216389	41.825636	42.216389	4.298292	30.000000	0.000000	42.695826	33.370006	25.945784
3.370340E+9	13.379533	42.333207	41.937981	42.333207	4.347480	30.000000	0.000000	42.829679	33.542160	25.974880
3.370340E+9	13.449188	42.448807	42.050342	42.448807	4.383112	30.000000	0.000000	42.939195	33.628237	25.974880
3.370340E+9	13.607869	42.565624	42.161124	42.565624	4.449495	30.000000	0.000000	43.097385	33.788095	26.013675
3.370340E+9	13.700319	42.678791	42.270328	42.678791	4.493085	30.000000	0.000000	43.231238	33.947952	26.013675
3.370340E+9	13.827219	42.795608	42.382050	42.795608	4.549130	30.000000	0.000000	43.377260	34.107809	25.984579
3.370340E+9	13.827219	42.906341	42.491713	42.906341	4.560901	30.000000	0.000000	43.425933	34.316854	26.013675
3.370340E+9	13.827219	43.008556	42.592940	43.008556	4.571766	30.000000	0.000000	43.425933	34.427524	26.052470
3.370340E+9	13.952964	43.102253	42.681759	43.102253	4.625425	30.000000	0.000000	43.438102	34.575085	26.033073
3.370340E+9	13.952964	43.184998	42.763698	43.184998	4.634305	30.000000	0.000000	43.389428	34.747239	26.081566
3.370340E+9	13.952964	43.249491	42.827561	43.249491	4.641226	30.000000	0.000000	43.340754	34.894800	26.023374
3.370340E+9	14.237006	43.300598	42.869142	43.300598	4.746017	30.000000	0.000000	43.340754	35.017767	26.130059
3.370340E+9	14.646992	43.338321	42.893415	43.338321	4.893964	30.000000	0.000000	43.316417	35.103844	26.091265
3.370340E+9	14.864835	43.362657	42.910536	43.362657	4.973337	30.000000	0.000000	43.340754	35.214514	26.168854
3.370340E+9	14.925381	43.377260	42.923047	43.377260	4.996336	30.000000	0.000000	43.377260	35.263701	26.246443
3.370340E+9	14.995088	43.384561	42.928039	43.384561	5.021744	30.000000	0.000000	43.450270	35.325185	26.265841
3.370340E+9	14.995088	43.395512	42.938875	43.395512	5.023012	30.000000	0.000000	43.535449	35.386668	26.430718
3.370340E+9	15.144632	43.419849	42.958157	43.419849	5.078615	30.000000	0.000000	43.669302	35.386668	26.498609
3.370340E+9	15.188044	43.461222	42.997694	43.461222	5.098803	30.000000	0.000000	43.851829	35.448152	26.673185
3.370340E+9	15.188044	43.522064	43.057888	43.522064	5.105941	30.000000	0.000000	43.997851	35.534229	26.760473
3.370340E+9	15.290639	43.596292	43.128014	43.596292	5.151054	30.000000	0.000000	44.083030	35.657196	26.857460
3.370340E+9	15.438754	43.674170	43.200265	43.674170	5.212953	30.000000	0.000000	44.119535	35.964614	27.061132
3.370340E+9	15.543893	43.754482	43.276295	43.754482	5.260049	30.000000	0.000000	44.119535	35.964614	27.061132
3.370340E+9	15.543893	43.838444	43.359340	43.838444	5.270142	30.000000	0.000000	44.180377	36.161362	27.080530
3.370340E+9	15.543893	43.912671	43.432756	43.912671	5.279066	30.000000	0.000000	44.119535	36.308923	27.080530
3.370340E+9	15.543893	43.967429	43.486916	43.967429	5.285649	30.000000	0.000000	43.997851	36.739308	27.022338
3.370340E+9	16.183732	44.013670	43.511721	44.013670	5.521431	30.000000	0.000000	43.997851	36.911462	26.867159
3.370340E+9	16.265692	44.042874	43.537903	44.042874	5.554680	30.000000	0.000000	43.961345	37.034429	26.954447
3.370340E+9	16.388902	44.050175	43.541074	44.050175	5.600115	30.000000	0.000000	43.924840	37.169693	27.002940
3.370340E+9	16.514232	44.051392	43.538156	44.051392	5.645591	30.000000	0.000000	44.010019	37.206583	27.051434
3.370340E+9	16.616811	44.050175	43.533579	44.050175	5.682558	30.000000	0.000000	44.070861	37.268067	27.080530
3.370340E+9	16.686567	44.055042	43.536092	44.055042	5.708449	30.000000	0.000000	44.168209	37.292660	27.138722
3.370340E+9	16.723038	44.072078	43.551726	44.072078	5.723875	30.000000	0.000000	44.289893	37.304957	27.255106
3.370340E+9	16.782256	44.098849	43.576227	44.098849	5.748835	30.000000	0.000000	44.448083	37.341847	27.303599
3.370340E+9	16.821961	44.153607	43.629025	44.153607	5.770400	30.000000	0.000000	44.667115	37.378737	27.478176
3.370340E+9	16.868981	44.237569	43.710433	44.237569	5.798496	30.000000	0.000000	44.837474	37.440221	27.565464
3.370340E+9	16.935079	44.336134	43.805629	44.336134	5.835549	30.000000	0.000000	44.983495	37.526298	27.604258
3.370340E+9	17.020707	44.448083	43.913389	44.448083	5.881643	30.000000	0.000000	45.080843	37.686155	27.604258
3.370340E+9	17.097347	44.568551	44.029847	44.568551	5.925744	30.000000	0.000000	45.129517	37.858310	27.691547
3.370340E+9	17.238530	44.682934	44.138116	44.682934	5.993001	30.000000	0.000000	45.153854	38.042760	27.613957
3.370340E+9	17.456345	44.792451	44.238970	44.792451	6.088289	30.000000	0.000000	45.166022	38.239508	27.613957
3.370340E+9	17.581640	44.886148	44.327280	44.886148	6.147542	30.000000	0.000000	45.105180	38.473146	27.546066
3.370340E+9	17.761958	44.965243	44.399287	44.965243	6.225510	30.000000	0.000000	45.080843	38.633003	27.526669
3.370340E+9	17.903154	45.029735	44.458177	45.029735	6.287144	30.000000	0.000000	45.093011	38.792860	27.536368
3.370340E+9	18.038479	45.077192	44.500430	45.077192	6.344386	30.000000	0.000000	45.141685	38.915828	27.613957
3.370340E+9	18.177540	45.120999	44.538938	45.120999	6.402667	30.000000	0.000000	45.275538	39.051092	27.604258
3.370340E+9	18.249463	45.172106	44.586931	45.172106	6.436924	30.000000	0.000000	45.494570	39.112575	27.701245
3.370340E+9	18.326058	45.223214	44.634758	45.223214	6.473013	30.000000	0.000000	45.591918	39.210949	27.817629
3.370340E+9	18.395854	45.282839	44.691217	45.282839	6.507846	30.000000	0.000000	45.725771	39.321620	27.982507
3.370340E+9	18.455091	45.353416	44.758839	45.353416	6.540353	30.000000	0.000000	45.859624	39.370806	28.069795
3.370340E+9	18.508423	45.433728	44.836263	45.433728	6.572114	30.000000	0.000000	45.969140	39.530664	28.195878
3.370340E+9	18.594157	45.524991	44.923370	45.524991	6.617835	30.000000	0.000000	46.017814	39.690521	28.273467
3.370340E+9	18.717282	45.621122	45.013973	45.621122	6.678645	30.000000	0.000000	46.042150	39.801192	28.351057
3.370340E+9	18.816852	45.724554	45.112574	45.724554	6.731779	30.000000	0.000000	46.127330	39.961049	28.370454
3.370340E+9	18.960011	45.827986	45.209640	45.827986	6.801801	30.000000	0.000000	46.176003	40.120907	28.389851
3.370340E+9	19.086387	45.924117	45.300063	45.924117	6.864587	30.000000	0.000000	46.236846	40.243874	28.515934
3.370340E+9	19.086387	46.005645	45.380484	46.005645	6.876774	30.000000	0.000000	46.309856	40.403731	28.496537
3.370340E+9	19.218713	46.085957	45.455065	46.085957	6.939808	30.000000	0.000000	46.395036	40.502105	28.593524
3.370340E+9	19.218713	46.163835	45.531877	46.163835	6.951535	30.000000	0.000000	46.504552	40.588182	28.690510
3.370340E+9	19.412586	46.239279	45.599462	46.239279	7.037995	30.000000	0.000000	46.614068	40.612775	28.768100
3.370340E+9	19.553177	46.320808	45.674897	46.320808	7.105025	30.000000	0.000000	46.784426	40.760336	28.894183
3.370340E+9	19.641097	46.410855	45.760574	46.410855	7.153089	30.000000	0.000000	46.918279	40.797226	28.962073
3.370340E+9	19.743602	46.517937	45.862515	46.517937	7.209647	30.000000	0.000000	47.112974	40.981677	29.117252
3.370340E+9	19.920171	46.616501	45.953399	46.616501	7.294131	30.000000	0.000000	47.112974	40.981677	29.117252
3.370340E+9	20.051362	46.716283	46.047071	46.716283	7.361333	30.000000	0.000000	47.173817	41.116941	29.204540
3.370340E+9	20.237248	46.825799	46.148350	46.825799	7.451942	30.000000	0.000000	47.332006	41.190721	29.253034
3.370340E+9	20.394430	46.953568	46.268609	46.953568	7.534545	30.000000	0.000000	47.587544	41.424359	29.408213
3.370340E+9	20.508378	47.083770	46.392793	47.083770	7.600750	30.000000	0.000000	47.697060	41.571920	29.398514
3.370340E+9	20.508378	47.212756	46.519885	47.212756	7.621572	30.000000	0.000000	47.794408	41.682590	29.388815
3.370340E+9	20.675227	47.341741	46.640907	47.341741	7.709172	30.000000	0.000000	47.903924	41.879338	29.640981
3.370340E+9	20.739876	47.459775	46.754834	47.459775	7.754353	30.000000	0.000000	47.964766	42.002305	29.718570
3.370340E+9	20.853145	47.579026	46.868166	47.579026	7.819465	30.000000	0.000000	48.110787	42.174459	29.728269
3.370340E+9	20.979141	47.688542	46.971417	47.688542	7.888379	30.000000	0.000000	48.208135	42.322020	29.786461
3.370340E+9	21.089112	47.812660	47.089615	47.812660	7.953502	30.000000	0.000000	48.354156	42.506471	29.825256
3.370340E+9	21.163225	47.945296	47.217504	47.945296	8.005722	30.000000	0.000000	48.500178	42.690922	29.844653
3.370340E+9	21.214673	48.069415	47.337829	48.069415	8.047443	30.000000	0.000000	48.573189	42.850779	29.805859
3.370340E+9	21.350901	48.177714	47.439411	48.177714	8.121335	30.000000	0.000000	48.670536	43.059823	29.941640
3.370340E+9	21.422913	48.279929	47.537372	48.279929	8.168126	30.000000	0.000000	48.719210	43.256571	29.951339
3.370340E+9	21.534374	48.382144	47.633844	48.382144	8.231300	30.000000	0.000000	48.816558	43.477912	29.999832
3.370340E+9	21.652867	48.479491	47.725239	48.479491	8.296776	30.000000	0.000000	48.877400	43.637769	29.990133
3.370340E+9	21.784133	48.578056	47.817330	48.578056	8.367991	30.000000	0.000000	48.950411	43.846814	30.028928
3.370340E+9	21.943231	48.669319	47.901158	48.669319	8.449773	30.000000	0.000000	49.023421	43.994374	30.028928
3.370340E+9	22.055553	48.766667	47.992717	48.766667	8.513452	30.000000	0.000000	49.181611	44.117342	30.067723
3.370340E+9	22.200742	48.857930	48.077020	48.857930	8.590020	30.000000	0.000000	49.266790	44.326386	30.077422
3.370340E+9	22.341876	48.947977	48.160253	48.947977	8.664962	30.000000	0.000000	49.400643	44.387870	30.193806
3.370340E+9	22.413895	49.047758	48.255679	49.047758	8.712875	30.000000	0.000000	49.571002	44.473947	30.222902
3.370340E+9	22.483788	49.156057	48.359553	49.156057	8.761548	30.000000	0.000000	49.753529	44.572320	30.290792
3.370340E+9	22.563544	49.283826	48.482188	49.283826	8.818016	30.000000	0.000000	49.996898	44.732178	30.329587
3.370340E+9	22.636725	49.428631	48.621817	49.428631	8.874950	30.000000	0.000000	50.264604	44.842848	30.348985
3.370340E+9	22.716478	49.574652	48.762371	49.574652	8.935097	30.000000	0.000000	50.337614	44.990409	30.348985
3.370340E+9	22.820043	49.725541	48.906767	49.725541	9.006516	30.000000	0.000000	50.459299	45.187157	30.416875
3.370340E+9	22.896156	49.878864	49.054599	49.878864	9.066909	30.000000	0.000000	50.556646	45.347014	30.387779
3.370340E+9	22.896156	50.030969	49.204191	50.030969	9.094559	30.000000	0.000000	50.702668	45.543762	30.436273
3.370340E+9	22.896156	50.183075	49.353783	50.183075	9.122208	30.000000	0.000000	50.787847	45.728212	30.630246
3.370340E+9	23.226037	50.332747	49.487992	50.332747	9.292299	30.000000	0.000000	50.897363	45.937257	30.581753
3.370340E+9	23.274239	50.471467	49.622479	50.471467	9.338874	30.000000	0.000000	50.958205	46.109411	30.639945
3.370340E+9	23.365314	50.593152	49.738505	50.593152	9.401116	30.000000	0.000000	50.970374	46.318455	30.630246
3.370340E+9	23.439479	50.691716	49.832456	50.691716	9.451864	30.000000	0.000000	50.982542	46.466016	30.717534
3.370340E+9	23.560906	50.764727	49.899391	50.764727	9.518692	30.000000	0.000000	50.994711	46.773434	30.727233
3.370340E+9	23.704967	50.830437	49.958229	50.830437	9.594289	30.000000	0.000000	50.994711	46.773434	30.727233
3.370340E+9	23.829719	50.887628	50.009447	50.887628	9.659994	30.000000	0.000000	51.031216	46.920995	30.727233
3.370340E+9	24.030860	50.942386	50.055193	50.942386	9.759122	30.000000	0.000000	51.104227	46.945588	30.795124
3.370340E+9	24.159962	51.011747	50.118155	51.011747	9.829509	30.000000	0.000000	51.396270	47.105446	30.989097
3.370340E+9	24.233169	51.092058	50.194110	51.092058	9.877437	30.000000	0.000000	51.590965	47.166929	31.086084
3.370340E+9	24.299909	51.184539	50.282269	51.184539	9.924970	30.000000	0.000000	51.822166	47.179226	31.183071
3.370340E+9	24.372388	51.286754	50.379747	51.286754	9.977075	30.000000	0.000000	51.980356	47.314490	31.318853
3.370340E+9	24.439138	51.412089	50.500154	51.412089	10.031278	30.000000	0.000000	52.223725	47.437457	31.435237
3.370340E+9	24.509353	51.558110	50.640724	51.558110	10.091243	30.000000	0.000000	52.442757	47.523534	31.541922
3.370340E+9	24.572785	51.716300	50.793506	51.716300	10.150739	30.000000	0.000000	52.576610	47.818656	31.668005
3.370340E+9	24.689083	51.884225	50.953659	51.884225	10.236218	30.000000	0.000000	52.673957	48.027700	31.638909
3.370340E+9	24.784906	52.046065	51.108648	52.046065	10.311589	30.000000	0.000000	52.649620	48.298228	31.541922
3.370340E+9	24.933163	52.196954	51.250686	52.196954	10.408951	30.000000	0.000000	52.613115	48.519569	31.687402
3.370340E+9	25.048214	52.307687	51.354637	52.307687	10.483551	30.000000	0.000000	52.503599	48.814690	31.668005
3.370340E+9	25.212350	52.398950	51.437407	52.398950	10.576973	30.000000	0.000000	52.503599	49.036031	31.658306
3.370340E+9	25.412799	52.464660	51.493549	52.464660	10.682226	30.000000	0.000000	52.479262	49.232779	31.668005
3.370340E+9	25.495486	52.518201	51.542642	52.518201	10.731152	30.000000	0.000000	52.515767	49.380340	31.745594
3.370340E+9	25.616937	52.552273	51.570996	52.552273	10.794042	30.000000	0.000000	52.564441	49.491010	31.803786
3.370340E+9	25.616937	52.580260	51.598461	52.580260	10.799790	30.000000	0.000000	52.722631	49.601681	31.832883
3.370340E+9	25.723414	52.614332	51.627430	52.614332	10.855920	30.000000	0.000000	52.917326	49.687758	32.055952
3.370340E+9	25.958088	52.661789	51.664132	52.661789	10.974228	30.000000	0.000000	53.148527	49.798428	32.172336
3.370340E+9	25.958088	52.738450	51.739341	52.738450	10.990204	30.000000	0.000000	53.416233	49.884505	32.298419
3.370340E+9	26.090508	52.847966	51.841188	52.847966	11.074559	30.000000	0.000000	53.708276	50.019769	32.366310
3.370340E+9	26.233909	52.992771	51.977154	52.992771	11.171787	30.000000	0.000000	53.951645	50.167330	32.550585
3.370340E+9	26.306199	53.159479	52.137589	53.159479	11.240782	30.000000	0.000000	54.170677	50.376374	32.618476
3.370340E+9	26.403254	53.333488	52.304106	53.333488	11.323200	30.000000	0.000000	54.219351	50.659199	32.715462
3.370340E+9	26.403254	53.509930	52.477143	53.509930	11.360661	30.000000	0.000000	54.280193	50.966617	32.725161
3.370340E+9	26.606804	53.681505	52.636642	53.681505	11.493502	30.000000	0.000000	54.280193	51.200255	32.773654
3.370340E+9	26.812475	53.836045	52.779278	53.836045	11.624436	30.000000	0.000000	54.268025	51.458486	32.812449
3.370340E+9	26.812475	53.965030	52.905732	53.965030	11.652286	30.000000	0.000000	54.207183	51.692124	32.831847
3.370340E+9	26.812475	54.067245	53.005940	54.067245	11.674357	30.000000	0.000000	54.170677	51.901169	32.812449
3.370340E+9	27.005020	54.152425	53.081059	54.152425	11.785023	30.000000	0.000000	54.268025	52.085619	32.841545
3.370340E+9	27.299458	54.209616	53.124255	54.209616	11.938975	30.000000	0.000000	54.280193	52.196290	32.899737
3.370340E+9	27.331657	54.254640	53.166967	54.254640	11.964397	30.000000	0.000000	54.401878	52.319257	33.035519
3.370340E+9	27.346632	54.291145	53.202085	54.291145	11.979665	30.000000	0.000000	54.535731	52.393038	33.122807
3.370340E+9	27.379842	54.338602	53.247133	54.338602	12.006160	30.000000	0.000000	54.693921	52.442224	33.171300
3.370340E+9	27.438986	54.424998	53.329194	54.424998	12.053840	30.000000	0.000000	55.144154	52.602082	33.520453
3.370340E+9	27.515375	54.511394	53.410487	54.511394	12.109979	30.000000	0.000000	55.144154	52.602082	33.520453
3.370340E+9	27.601454	54.628211	53.521144	54.628211	12.177744	30.000000	0.000000	55.436197	52.725049	33.578645
3.370340E+9	27.734845	54.773016	53.657103	54.773016	12.275043	30.000000	0.000000	55.655229	52.897203	33.665933
3.370340E+9	27.887588	54.967711	53.841032	54.967711	12.393470	30.000000	0.000000	56.117630	53.339886	33.733824
3.370340E+9	28.026192	55.163623	54.026730	55.163623	12.505829	30.000000	0.000000	56.227146	53.635007	33.743522
3.370340E+9	28.215627	55.360752	54.211283	55.360752	12.644157	30.000000	0.000000	56.251483	53.930128	33.792016
3.370340E+9	28.401917	55.544496	54.382801	55.544496	12.778641	30.000000	0.000000	56.239315	54.200656	33.675632
3.370340E+9	28.697053	55.712421	54.533825	55.712421	12.964552	30.000000	0.000000	56.214978	54.483481	33.627138
3.370340E+9	28.697053	55.866960	54.685095	55.866960	13.000514	30.000000	0.000000	56.239315	54.754009	33.636837
3.370340E+9	28.850201	55.987428	54.796021	55.987428	13.105475	30.000000	0.000000	56.348831	54.975350	33.685330
3.370340E+9	28.952095	56.116413	54.917594	56.116413	13.187016	30.000000	0.000000	56.434010	55.147504	33.724125
3.370340E+9	29.063820	56.232014	55.025591	56.232014	13.270644	30.000000	0.000000	56.592200	55.282768	33.830811
3.370340E+9	29.063820	56.353698	55.144665	56.353698	13.299362	30.000000	0.000000	56.872074	55.418032	33.976291
3.370340E+9	29.113270	56.457130	55.243596	56.457130	13.348877	30.000000	0.000000	57.151949	55.491813	34.092675
3.370340E+9	29.146931	56.567863	55.350391	56.567863	13.392188	30.000000	0.000000	57.334476	55.713154	34.306046
3.370340E+9	29.258678	56.688331	55.463083	56.688331	13.477722	30.000000	0.000000	57.456160	55.934495	34.422430
3.370340E+9	29.258678	56.817316	55.589281	56.817316	13.508389	30.000000	0.000000	57.529171	56.106649	34.451526
3.370340E+9	29.365076	56.954820	55.718850	56.954820	13.595665	30.000000	0.000000	57.590013	56.315694	34.674596
3.370340E+9	29.511305	57.088673	55.842956	57.088673	13.702882	30.000000	0.000000	57.577845	56.610815	34.790980
3.370340E+9	29.700859	57.218875	55.961417	57.218875	13.832043	30.000000	0.000000	57.650856	56.869046	34.849172
3.370340E+9	29.902658	57.345427	56.075677	57.345427	13.967252	30.000000	0.000000	57.699529	57.102684	34.849172
3.370340E+9	30.071941	57.456160	56.182283	57.456160	14.055523	30.000000	0.000000	57.699529	57.299432	34.946159
3.370340E+9	30.203978	57.542556	56.272143	57.542556	14.096301	30.000000	0.000000	57.736035	57.520773	35.004351
3.370340E+9	30.256930	57.608266	56.338563	57.608266	14.120287	30.000000	0.000000	57.809045	57.754411	35.023748
3.370340E+9	30.320579	57.664241	56.395904	57.664241	14.143500	30.000000	0.000000	57.894225	57.914268	35.178927
3.370340E+9	30.389196	57.717782	56.451074	57.717782	14.166879	30.000000	0.000000	57.991572	58.086422	35.305010
3.370340E+9	30.389196	57.777407	56.509391	57.777407	14.181514	30.000000	0.000000	58.125425	58.221686	35.392298
3.370340E+9	30.389196	57.854069	56.584370	57.854069	14.200330	30.000000	0.000000	58.356626	58.356950	35.518381
3.370340E+9	30.452847	57.952633	56.683385	57.952633	14.234068	30.000000	0.000000	58.563490	58.541401	35.615368
3.370340E+9	30.739457	58.064583	56.804683	58.064583	14.304649	30.000000	0.000000	58.770354	58.738149	35.780245
3.370340E+9	30.845786	58.182617	56.924546	58.182617	14.349754	30.000000	0.000000	58.879870	58.934897	35.945123
3.370340E+9	30.949335	58.309169	57.052646	58.309169	14.396611	30.000000	0.000000	58.965049	59.254612	36.051808
3.370340E+9	31.084844	58.436938	57.183284	58.436938	14.448684	30.000000	0.000000	59.013723	59.488250	36.129398
3.370340E+9	31.084844	58.565923	57.309502	58.565923	14.480576	30.000000	0.000000	59.098902	59.746481	36.148795
3.370340E+9	31.247406	58.692475	57.440116	58.692475	14.536610	30.000000	0.000000	59.159744	60.004712	36.226385
3.370340E+9	31.534765	58.840931	57.597421	58.840931	14.617256	30.000000	0.000000	59.476124	60.508878	36.265179
3.370340E+9	31.534765	58.991819	57.745121	58.991819	14.654740	30.000000	0.000000	59.634314	60.730219	36.245782
3.370340E+9	31.664254	59.145142	57.900650	59.145142	14.712715	30.000000	0.000000	59.889852	60.939264	36.284577
3.370340E+9	31.785505	59.304549	58.061819	59.304549	14.771048	30.000000	0.000000	60.157558	61.136011	36.352468
3.370340E+9	31.959649	59.468823	58.230022	59.468823	14.838877	30.000000	0.000000	60.413095	61.332759	36.371865
3.370340E+9	31.959649	59.651350	58.408746	59.651350	14.884422	30.000000	0.000000	60.705138	61.541803	36.527044
3.370340E+9	32.029313	59.852129	58.608312	59.852129	14.945360	30.000000	0.000000	60.972844	61.824628	36.536742
3.370340E+9	32.139110	60.073595	58.829873	60.073595	15.017813	30.000000	0.000000	61.228382	62.082860	36.633729
3.370340E+9	32.319474	60.310880	59.069996	60.310880	15.105431	30.000000	0.000000	61.471751	62.390278	36.672524
3.370340E+9	32.319474	60.563984	59.317893	60.563984	15.168824	30.000000	0.000000	61.690783	62.734586	36.691921
3.370340E+9	32.484644	60.806136	59.562222	60.806136	15.255614	30.000000	0.000000	61.897647	63.066598	36.721017
3.370340E+9	32.677638	61.045855	59.805440	61.045855	15.346439	30.000000	0.000000	62.031500	63.447797	36.691921
3.370340E+9	33.053394	61.278273	60.049573	61.278273	15.464882	30.000000	0.000000	62.214027	63.816699	36.643428
3.370340E+9	33.053394	61.498522	60.265405	61.498522	15.520467	30.000000	0.000000	62.360048	64.025743	36.556140
3.370340E+9	33.354037	61.715120	60.490920	61.715120	15.623539	30.000000	0.000000	62.579081	64.406942	36.449454
3.370340E+9	33.454320	61.920767	60.696927	61.920767	15.691811	30.000000	0.000000	62.761608	64.714360	36.439756
3.370340E+9	33.572271	62.120330	60.897786	62.120330	15.761518	30.000000	0.000000	62.968471	64.984888	36.362166
3.370340E+9	33.665245	62.313808	61.091602	62.313808	15.825743	30.000000	0.000000	63.163167	65.230823	36.439756
3.370340E+9	33.665245	62.497552	61.271742	62.497552	15.872408	30.000000	0.000000	63.309188	65.427570	36.488249
3.370340E+9	33.736952	62.669127	61.443168	62.669127	15.927725	30.000000	0.000000	63.406536	65.698099	36.633729
3.370340E+9	33.903079	62.823667	61.602156	62.823667	15.994282	30.000000	0.000000	63.443041	65.845659	36.779209
3.370340E+9	33.903079	62.956303	61.732213	62.956303	16.028050	30.000000	0.000000	63.357862	66.153078	36.934388
3.370340E+9	34.010358	63.065819	61.844445	63.065819	16.073624	30.000000	0.000000	63.309188	66.399012	37.002279
3.370340E+9	34.132913	63.153432	61.935907	63.153432	16.116199	30.000000	0.000000	63.236177	66.644947	36.953786
3.370340E+9	34.246030	63.211841	61.998314	63.211841	16.149815	30.000000	0.000000	63.163167	66.841695	37.089567
3.370340E+9	34.360426	63.248346	62.039306	63.248346	16.178081	30.000000	0.000000	63.126661	67.050739	37.235047
3.370340E+9	34.471405	63.275117	62.070601	63.275117	16.203317	30.000000	0.000000	63.236177	67.186003	37.293240
3.370340E+9	34.471405	63.286068	62.081344	63.286068	16.206121	30.000000	0.000000	63.272683	67.272080	37.409624
3.370340E+9	34.471405	63.287285	62.082537	63.287285	16.206433	30.000000	0.000000	63.321357	67.481125	37.593899
3.370340E+9	34.814163	63.281201	62.092135	63.281201	16.261709	30.000000	0.000000	63.345694	67.628686	37.749078
3.370340E+9	34.814163	63.276333	62.087359	63.276333	16.260458	30.000000	0.000000	63.394367	67.813137	37.739379
3.370340E+9	34.894334	63.288502	62.102943	63.288502	16.276889	30.000000	0.000000	63.479547	67.960697	37.894558
3.370340E+9	34.980282	63.326224	62.143868	63.326224	16.300864	30.000000	0.000000	63.686410	68.403380	38.010942
3.370340E+9	35.227884	63.388283	62.216047	63.388283	16.358021	30.000000	0.000000	63.856769	68.624721	38.010942
3.370340E+9	35.227884	63.457643	62.284125	63.457643	16.375921	30.000000	0.000000	63.856769	68.624721	38.010942
3.370340E+9	35.360910	63.550124	62.380974	63.550124	16.421981	30.000000	0.000000	64.051464	68.932139	37.972147
3.370340E+9	35.481893	63.652339	62.486848	63.652339	16.468619	30.000000	0.000000	64.258328	69.178074	37.991545
3.370340E+9	35.716517	63.792276	62.634995	63.792276	16.544155	30.000000	0.000000	64.672056	69.805207	37.943051
3.370340E+9	35.716517	63.940731	62.780757	63.940731	16.582656	30.000000	0.000000	64.805909	70.124922	37.972147
3.370340E+9	35.856784	64.111090	62.954500	64.111090	16.650482	30.000000	0.000000	65.049278	70.469231	37.991545
3.370340E+9	36.006400	64.294833	63.141859	64.294833	16.723506	30.000000	0.000000	65.231805	70.788946	37.981846
3.370340E+9	36.150304	64.487095	63.337362	64.487095	16.797935	30.000000	0.000000	65.402163	71.120958	38.049737
3.370340E+9	36.284876	64.681790	63.534862	64.681790	16.871565	30.000000	0.000000	65.633364	71.477563	38.098230
3.370340E+9	36.425142	64.871618	63.727888	64.871618	16.945045	30.000000	0.000000	65.755049	71.809575	38.059435
3.370340E+9	36.528884	65.082133	63.939563	65.082133	17.017822	30.000000	0.000000	65.961912	72.141587	38.175820
3.370340E+9	36.698483	65.288997	64.150788	65.288997	17.101099	30.000000	0.000000	66.120102	72.522786	38.166121
3.370340E+9	36.822241	65.484909	64.349138	65.484909	17.173784	30.000000	0.000000	66.217450	72.830204	38.127326
3.370340E+9	36.951799	65.644316	64.511925	65.644316	17.238024	30.000000	0.000000	66.266124	73.186809	38.049737
3.370340E+9	37.113618	65.780602	64.653554	65.780602	17.301905	30.000000	0.000000	66.168776	73.481931	37.952750
3.370340E+9	37.303211	65.879167	64.759463	65.879167	17.360809	30.000000	0.000000	66.034923	73.752459	37.884859
3.370340E+9	37.416247	65.952178	64.836626	65.952178	17.399743	30.000000	0.000000	65.961912	73.986097	37.690886
3.370340E+9	37.550881	66.005719	64.895694	66.005719	17.437353	30.000000	0.000000	65.937575	74.096768	37.749078
3.370340E+9	37.621822	66.034923	64.927799	66.034923	17.457451	30.000000	0.000000	65.925407	74.195142	37.836366
3.370340E+9	37.658314	66.064127	64.958259	66.064127	17.471546	30.000000	0.000000	66.047092	74.207439	37.826667
3.370340E+9	37.685528	66.086031	64.981098	66.086031	17.482094	30.000000	0.000000	66.180945	74.195142	38.010942
3.370340E+9	37.694804	66.115235	65.010258	66.115235	17.491441	30.000000	0.000000	66.412145	74.195142	38.127326
3.370340E+9	37.725701	66.157825	65.053617	66.157825	17.508114	30.000000	0.000000	66.643346	74.244329	38.292204
3.370340E+9	37.775023	66.218667	65.115809	66.218667	17.532853	30.000000	0.000000	66.874547	74.342703	38.340697
3.370340E+9	37.829456	66.295328	65.193808	66.295328	17.562696	30.000000	0.000000	66.935389	74.502560	38.379492
3.370340E+9	37.976954	66.384158	65.288258	66.384158	17.612137	30.000000	0.000000	66.923221	74.723902	38.427985
3.370340E+9	38.126449	66.476638	65.386416	66.476638	17.662979	30.000000	0.000000	66.886715	75.019023	38.369793
3.370340E+9	38.357767	66.561817	65.481368	66.561817	17.726393	30.000000	0.000000	66.789368	75.326442	38.263108
3.370340E+9	38.357767	66.640912	65.559179	66.640912	17.747457	30.000000	0.000000	66.716357	75.633860	38.204916
3.370340E+9	38.357767	66.698104	65.615443	66.698104	17.762688	30.000000	0.000000	66.619009	75.916685	38.107929
3.370340E+9	38.357767	66.734610	65.651355	66.734610	17.772410	30.000000	0.000000	66.545998	76.162620	38.049737
3.370340E+9	38.964452	66.746778	65.692739	66.746778	17.883041	30.000000	0.000000	66.533830	76.408555	38.040038
3.370340E+9	39.013415	66.739477	65.687929	66.739477	17.889759	30.000000	0.000000	66.570335	76.543819	38.107929
3.370340E+9	39.049863	66.713923	65.664546	66.713923	17.889365	30.000000	0.000000	66.619009	76.629896	38.195217
3.370340E+9	39.073474	66.689586	65.641737	66.689586	17.887020	30.000000	0.000000	66.692020	76.691379	38.389191
3.370340E+9	39.109617	66.699321	65.653072	66.699321	17.896032	30.000000	0.000000	67.020568	76.814347	38.612260
3.370340E+9	39.124325	66.712706	65.666961	66.712706	17.902229	30.000000	0.000000	67.020568	76.814347	38.612260
3.370340E+9	39.168106	66.754079	65.709811	66.754079	17.921094	30.000000	0.000000	67.203095	76.925017	38.689850
3.370340E+9	39.229926	66.817355	65.775102	66.817355	17.949053	30.000000	0.000000	67.349117	77.146359	38.767439
3.370340E+9	39.476028	66.904968	65.873333	66.904968	18.016345	30.000000	0.000000	67.495138	77.601338	38.912919
3.370340E+9	39.476028	66.997448	65.964387	66.997448	18.041249	30.000000	0.000000	67.470801	77.933350	39.029304
3.370340E+9	39.745475	67.085061	66.063816	67.085061	18.112915	30.000000	0.000000	67.409959	78.277659	39.000208
3.370340E+9	39.912906	67.158072	66.143911	67.158072	18.162553	30.000000	0.000000	67.300443	78.621967	39.048701
3.370340E+9	40.298957	67.220131	66.223964	67.220131	18.248456	30.000000	0.000000	67.239601	78.953979	39.077797
3.370340E+9	40.298957	67.270022	66.273115	67.270022	18.262000	30.000000	0.000000	67.190927	79.224508	39.087496
3.370340E+9	40.442842	67.293142	66.302962	67.293142	18.294086	30.000000	0.000000	67.251769	79.556520	39.048701
3.370340E+9	40.548188	67.325997	66.340513	67.325997	18.321931	30.000000	0.000000	67.349117	79.753267	39.039002
3.370340E+9	40.644976	67.356418	66.375252	67.356418	18.347600	30.000000	0.000000	67.507307	79.937718	38.980810
3.370340E+9	40.710760	67.395357	66.416864	67.395357	18.370036	30.000000	0.000000	67.738508	80.060686	39.126290
3.370340E+9	40.754586	67.444031	66.466991	67.444031	18.391191	30.000000	0.000000	67.981877	80.269730	39.106893
3.370340E+9	40.798413	67.519475	66.543506	67.519475	18.419661	30.000000	0.000000	68.225246	80.466478	39.223277
3.370340E+9	40.878630	67.624124	66.650608	67.624124	18.462690	30.000000	0.000000	68.456447	80.663226	39.223277
3.370340E+9	40.976991	67.747025	66.776613	67.747025	18.514038	30.000000	0.000000	68.529457	80.921458	39.329963
3.370340E+9	41.093558	67.865060	66.898744	67.865060	18.567424	30.000000	0.000000	68.419941	81.228876	39.417251
3.370340E+9	41.268402	67.981877	67.022597	67.981877	18.631146	30.000000	0.000000	68.359099	81.536295	39.397853
3.370340E+9	41.426675	68.079224	67.126460	68.079224	18.686632	30.000000	0.000000	68.225246	81.794526	39.378456
3.370340E+9	41.614352	68.151018	67.206620	68.151018	18.740552	30.000000	0.000000	68.067056	82.151132	39.242675
3.370340E+9	41.794575	68.194825	67.258828	68.194825	18.785491	30.000000	0.000000	67.945371	82.384770	39.165085
3.370340E+9	41.876402	68.213077	67.280924	68.213077	18.805464	30.000000	0.000000	67.921034	82.593814	39.019605
3.370340E+9	41.961923	68.213077	67.285203	68.213077	18.821087	30.000000	0.000000	67.981877	82.704485	39.126290
3.370340E+9	42.020234	68.194825	67.270116	68.194825	18.826702	30.000000	0.000000	68.042719	82.753672	39.116592
3.370340E+9	42.071029	68.182656	67.260653	68.182656	18.832622	30.000000	0.000000	68.334762	82.802859	39.223277
3.370340E+9	42.107369	68.181439	67.261271	68.181439	18.838925	30.000000	0.000000	68.517289	82.852046	39.291168
3.370340E+9	42.107369	68.203343	67.282879	68.203343	18.844977	30.000000	0.000000	68.638974	82.913530	39.436648
3.370340E+9	42.143806	68.234981	67.315915	68.234981	18.860381	30.000000	0.000000	68.675479	83.011904	39.533635
3.370340E+9	42.254943	68.281221	67.367103	68.281221	18.893502	30.000000	0.000000	68.687647	83.196355	39.504539
3.370340E+9	42.254943	68.338413	67.423529	68.338413	18.909327	30.000000	0.000000	68.638974	83.417696	39.650019
3.370340E+9	42.663585	68.378569	67.483676	68.378569	18.995393	30.000000	0.000000	68.346931	83.946456	39.727609
3.370340E+9	42.856701	68.407773	67.522213	68.407773	19.038975	30.000000	0.000000	68.213077	84.229281	39.630622
3.370340E+9	43.009519	68.421158	67.543118	68.421158	19.070789	30.000000	0.000000	68.115730	84.499809	39.601526
3.370340E+9	43.118661	68.417508	67.545011	68.417508	19.089839	30.000000	0.000000	68.006214	84.708854	39.601526
3.370340E+9	43.227807	68.379785	67.513264	68.379785	19.099377	30.000000	0.000000	67.957540	84.856415	39.553032
3.370340E+9	43.298982	68.320160	67.457976	68.320160	19.095798	30.000000	0.000000	67.921034	84.967086	39.562731
3.370340E+9	43.375374	68.252017	67.394533	68.252017	19.090775	30.000000	0.000000	67.957540	85.016273	39.611224
3.370340E+9	43.413347	68.183873	67.329154	68.183873	19.078680	30.000000	0.000000	67.994045	85.040866	39.698513
3.370340E+9	43.440635	68.124248	67.271645	68.124248	19.066997	30.000000	0.000000	68.091393	85.028569	39.795499
3.370340E+9	43.471711	68.080441	67.229946	68.080441	19.060429	30.000000	0.000000	68.200909	85.040866	39.940980
3.370340E+9	43.493519	68.074357	67.225032	68.074357	19.062720	30.000000	0.000000	68.286088	85.090053	39.940980
3.370340E+9	43.537408	68.082875	67.235646	68.082875	19.073146	30.000000	0.000000	68.298257	85.139240	39.989473
3.370340E+9	43.595774	68.107212	67.262610	68.107212	19.090663	30.000000	0.000000	68.359099	85.299098	39.989473
3.370340E+9	43.723662	68.141284	67.302685	68.141284	19.123675	30.000000	0.000000	68.346931	85.446659	39.979774
3.370340E+9	43.931314	68.175355	67.346781	68.175355	19.171370	30.000000	0.000000	68.298257	85.680297	39.911884
3.370340E+9	44.164553	68.202126	67.384970	68.202126	19.221774	30.000000	0.000000	68.188741	85.913935	39.960377
3.370340E+9	44.362835	68.220379	67.412996	68.220379	19.263402	30.000000	0.000000	68.140067	86.147573	39.814897
3.370340E+9	44.465132	68.234981	67.432584	68.234981	19.286361	30.000000	0.000000	68.140067	86.356618	39.776102
3.370340E+9	44.572569	68.243499	67.446423	68.243499	19.308559	30.000000	0.000000	68.176572	86.541069	39.737307
3.370340E+9	44.639964	68.248366	67.454634	68.248366	19.322355	30.000000	0.000000	68.249583	86.676333	39.795499
3.370340E+9	44.685623	68.260534	67.468966	68.260534	19.334216	30.000000	0.000000	68.407773	86.836191	39.824595
3.370340E+9	44.742340	68.289739	67.500697	68.289739	19.352949	30.000000	0.000000	68.590300	86.922268	39.882788
3.370340E+9	44.791370	68.334762	67.547679	68.334762	19.374759	30.000000	0.000000	68.809332	87.057532	40.047665
3.370340E+9	44.855780	68.401689	67.617095	68.401689	19.405637	30.000000	0.000000	69.016196	87.254280	40.028268
3.370340E+9	44.918075	68.502687	67.720093	68.502687	19.445822	30.000000	0.000000	69.308239	87.721556	39.970076
3.370340E+9	45.051127	68.614637	67.837522	68.614637	19.502278	30.000000	0.000000	69.308239	87.721556	39.970076
3.370340E+9	45.244359	68.739972	67.971276	68.739972	19.573824	30.000000	0.000000	69.393418	87.992085	39.824595
3.370340E+9	45.474770	68.876259	68.117801	68.876259	19.655577	30.000000	0.000000	69.502934	88.680702	39.572430
3.370340E+9	45.630046	69.022280	68.270163	69.022280	19.726268	30.000000	0.000000	69.636787	89.000418	39.456046
3.370340E+9	45.827120	69.175603	68.431930	69.175603	19.807020	30.000000	0.000000	69.782809	89.197166	39.339661
3.370340E+9	45.952967	69.325275	68.586470	69.325275	19.873523	30.000000	0.000000	69.904494	89.492288	39.291168
3.370340E+9	45.952967	69.467646	68.727324	69.467646	19.914336	30.000000	0.000000	70.014010	89.738222	39.252373
3.370340E+9	45.952967	69.606366	68.864566	69.606366	19.954103	30.000000	0.000000	70.196537	89.947267	39.106893
3.370340E+9	45.952967	69.740219	68.996992	69.740219	19.992475	30.000000	0.000000	70.354727	90.107125	39.252373
3.370340E+9	46.032750	69.850952	69.110684	69.850952	20.039329	30.000000	0.000000	70.415569	90.291576	39.349360
3.370340E+9	46.032750	69.977504	69.235894	69.977504	20.075635	30.000000	0.000000	70.573759	90.451434	39.388155
3.370340E+9	46.492311	70.102840	69.383845	70.102840	20.199013	30.000000	0.000000	70.646770	90.685072	39.397853
3.370340E+9	46.492311	70.217223	69.497055	70.217223	20.231971	30.000000	0.000000	70.646770	90.869523	39.465744
3.370340E+9	46.641490	70.307270	69.593980	70.307270	20.286403	30.000000	0.000000	70.537254	91.152348	39.359059
3.370340E+9	46.796717	70.365678	69.659925	70.365678	20.332936	30.000000	0.000000	70.366895	91.336799	39.252373
3.370340E+9	46.939295	70.392449	69.693900	70.392449	20.367956	30.000000	0.000000	70.172200	91.570438	39.203880
3.370340E+9	47.066406	70.394883	69.702975	70.394883	20.392996	30.000000	0.000000	70.038347	91.717999	39.184482
3.370340E+9	47.141644	70.370546	69.682822	70.370546	20.400349	30.000000	0.000000	69.953167	91.791779	39.194181
3.370340E+9	47.163236	70.330390	69.644190	70.330390	20.392840	30.000000	0.000000	69.953167	91.840966	39.242675
3.370340E+9	47.171070	70.292668	69.607246	70.292668	20.383401	30.000000	0.000000	70.038347	91.853263	39.407552
3.370340E+9	47.181748	70.248861	69.564426	70.248861	20.372739	30.000000	0.000000	70.135694	91.828669	39.591827
3.370340E+9	47.216893	70.202621	69.520475	70.202621	20.366043	30.000000	0.000000	70.184368	91.853263	39.785801
3.370340E+9	47.298050	70.152730	69.475314	70.152730	20.367065	30.000000	0.000000	70.147863	91.914747	39.979774
3.370340E+9	47.427917	70.112574	69.442335	70.112574	20.380198	30.000000	0.000000	70.135694	92.000824	40.018569
3.370340E+9	47.553768	70.080936	69.417579	70.080936	20.395023	30.000000	0.000000	70.050515	92.185275	40.076761
3.370340E+9	47.808223	70.056599	69.406778	70.056599	20.436522	30.000000	0.000000	69.928831	92.382023	40.125255
3.370340E+9	47.808223	70.033479	69.383872	70.033479	20.429778	30.000000	0.000000	69.807146	92.591068	39.989473
3.370340E+9	48.216543	70.001841	69.373884	70.001841	20.498524	30.000000	0.000000	69.636787	93.082938	39.863390
3.370340E+9	48.216543	69.962902	69.335294	69.962902	20.487121	30.000000	0.000000	69.563777	93.279686	39.834294
3.370340E+9	48.371443	69.911795	69.292744	69.911795	20.501723	30.000000	0.000000	69.527271	93.414950	39.882788
3.370340E+9	48.493241	69.852169	69.240011	69.852169	20.507477	30.000000	0.000000	69.539440	93.537917	39.950678
3.370340E+9	48.593540	69.799845	69.193384	69.799845	20.511245	30.000000	0.000000	69.661124	93.611698	39.999172
3.370340E+9	48.593540	69.765773	69.159609	69.765773	20.501233	30.000000	0.000000	69.807146	93.611698	40.125255
3.370340E+9	48.606308	69.749954	69.144594	69.749954	20.499018	30.000000	0.000000	69.977504	93.808446	40.241639
3.370340E+9	48.610358	69.764556	69.159281	69.764556	20.504082	30.000000	0.000000	70.196537	93.943710	40.445311
3.370340E+9	48.700750	69.807146	69.206225	69.807146	20.533847	30.000000	0.000000	70.354727	94.189645	40.309530
3.370340E+9	48.700750	69.875289	69.273781	69.875289	20.553891	30.000000	0.000000	70.488580	94.410987	40.425914
3.370340E+9	48.983473	69.964119	69.376663	69.964119	20.634118	30.000000	0.000000	70.525085	94.742999	40.387119
3.370340E+9	48.983473	70.071202	69.482847	70.071202	20.665700	30.000000	0.000000	70.634601	95.087308	40.280434
3.370340E+9	49.465431	70.183151	69.619223	70.183151	20.791334	30.000000	0.000000	70.646770	95.468507	40.067063
3.370340E+9	49.655602	70.291451	69.736687	70.291451	20.860056	30.000000	0.000000	70.622433	95.862003	39.921582
3.370340E+9	49.655602	70.375413	69.819987	70.375413	20.884973	30.000000	0.000000	70.500748	96.157125	39.756705
3.370340E+9	49.655602	70.432605	69.876727	70.432605	20.901945	30.000000	0.000000	70.379064	96.452247	39.611224
3.370340E+9	49.655602	70.460592	69.904494	70.460592	20.910251	30.000000	0.000000	70.257379	96.599808	39.679115
3.370340E+9	50.057131	70.465460	69.930582	70.465460	20.989317	30.000000	0.000000	70.245211	96.722776	39.766403
3.370340E+9	50.057131	70.460592	69.925751	70.460592	20.987867	30.000000	0.000000	70.306053	96.784259	39.873089
3.370340E+9	50.076426	70.452074	69.918320	70.452074	20.989061	30.000000	0.000000	70.403401	96.796556	40.028268
3.370340E+9	50.098961	70.453291	69.920722	70.453291	20.993783	30.000000	0.000000	70.537254	96.833446	40.280434
3.370340E+9	50.115598	70.456942	69.925226	70.456942	20.998089	30.000000	0.000000	70.671107	96.845743	40.338626
3.370340E+9	50.151526	70.473978	69.944037	70.473978	21.010118	30.000000	0.000000	70.817128	96.981007	40.396818
3.370340E+9	50.151526	70.506832	69.976645	70.506832	21.019913	30.000000	0.000000	70.950981	97.190052	40.377420
3.370340E+9	50.268727	70.556723	70.032381	70.556723	21.057497	30.000000	0.000000	70.999655	97.374503	40.309530
3.370340E+9	50.465193	70.623650	70.109252	70.623650	21.115595	30.000000	0.000000	71.048329	97.645032	40.144652
3.370340E+9	50.691094	70.703962	70.201006	70.703962	21.183522	30.000000	0.000000	71.060498	97.940154	39.960377
3.370340E+9	50.917551	70.792791	70.301285	70.792791	21.254244	30.000000	0.000000	71.133508	98.198386	39.834294
3.370340E+9	51.093248	70.892573	70.409765	70.892573	21.318493	30.000000	0.000000	71.303867	98.468914	39.659718
3.370340E+9	51.237457	70.989920	70.514173	70.989920	21.375965	30.000000	0.000000	71.376878	98.727146	39.659718
3.370340E+9	51.324501	71.088485	70.616746	71.088485	21.422693	30.000000	0.000000	71.522899	98.923894	39.640321
3.370340E+9	51.396201	71.187050	70.718510	71.187050	21.466463	30.000000	0.000000	71.656752	99.096049	39.650019
3.370340E+9	51.462741	71.288048	70.822424	71.288048	21.509995	30.000000	0.000000	71.827111	99.317390	39.659718
3.370340E+9	51.498114	71.387829	70.923461	71.387829	21.547065	30.000000	0.000000	71.948795	99.489545	39.843993
3.370340E+9	51.573996	71.496128	71.035153	71.496128	21.594713	30.000000	0.000000	72.082648	99.637106	39.756705
3.370340E+9	51.695122	71.611729	71.156561	71.611729	21.653555	30.000000	0.000000	72.204333	99.895338	39.717910
3.370340E+9	51.799624	71.727329	71.277091	71.727329	21.709192	30.000000	0.000000	72.216501	100.153569	39.611224
3.370340E+9	52.090457	71.840496	71.405347	71.840496	21.801130	30.000000	0.000000	72.265175	100.620846	39.388155
3.370340E+9	52.090457	71.936627	71.500896	71.936627	21.830303	30.000000	0.000000	72.265175	100.620846	39.388155
3.370340E+9	52.224343	72.021806	71.592856	72.021806	21.882792	30.000000	0.000000	72.228670	100.842188	39.349360
3.370340E+9	52.330949	72.081432	71.657943	72.081432	21.922146	30.000000	0.000000	72.119154	100.989749	39.388155
3.370340E+9	52.412440	72.105768	71.686586	72.105768	21.945792	30.000000	0.000000	71.900121	101.223387	39.475443
3.370340E+9	52.483637	72.102118	71.686844	72.102118	21.958877	30.000000	0.000000	71.790605	101.260277	39.553032
3.370340E+9	52.548141	72.082648	71.671009	72.082648	21.965807	30.000000	0.000000	71.754100	101.284871	39.679115
3.370340E+9	52.602707	72.054661	71.646160	72.054661	21.968155	30.000000	0.000000	71.802774	101.247980	39.766403
3.370340E+9	52.629989	72.016939	71.610141	72.016939	21.962090	30.000000	0.000000	71.827111	101.247980	39.960377
3.370340E+9	52.657271	71.980433	71.575330	71.980433	21.956391	30.000000	0.000000	71.851448	101.297167	40.115556
3.370340E+9	52.707243	71.936627	71.534494	71.936627	21.952976	30.000000	0.000000	71.827111	101.272574	40.280434
3.370340E+9	52.759309	71.886736	71.487720	71.886736	21.948110	30.000000	0.000000	71.766268	101.469322	40.338626
3.370340E+9	52.878988	71.830761	71.438573	71.830761	21.954818	30.000000	0.000000	71.668921	101.641477	40.367722
3.370340E+9	53.010514	71.774786	71.390065	71.774786	21.963854	30.000000	0.000000	71.559404	101.838225	40.309530
3.370340E+9	53.010514	71.734630	71.350124	71.734630	21.951566	30.000000	0.000000	71.498562	102.022676	40.319228
3.370340E+9	53.010514	71.688390	71.304132	71.688390	21.937416	30.000000	0.000000	71.328204	102.280908	40.231940
3.370340E+9	53.278354	71.647017	71.277545	71.647017	21.977933	30.000000	0.000000	71.340372	102.489953	40.183447
3.370340E+9	53.698264	71.593476	71.247121	71.593476	22.044906	30.000000	0.000000	71.267361	102.576030	40.183447
3.370340E+9	53.771247	71.530200	71.188121	71.530200	22.039915	30.000000	0.000000	71.194351	102.711294	40.222241
3.370340E+9	53.838098	71.468141	71.129992	71.468141	22.034059	30.000000	0.000000	71.230856	102.797372	40.261036
3.370340E+9	53.921726	71.415817	71.082458	71.415817	22.034515	30.000000	0.000000	71.303867	102.883449	40.251337
3.370340E+9	53.994713	71.378094	71.048876	71.378094	22.037349	30.000000	0.000000	71.389046	102.944933	40.464709
3.370340E+9	54.021975	71.362275	71.034610	71.362275	22.037871	30.000000	0.000000	71.510731	103.018713	40.581093
3.370340E+9	54.080229	71.375661	71.051099	71.375661	22.053559	30.000000	0.000000	71.693258	103.080197	40.707176
3.370340E+9	54.128428	71.409732	71.087636	71.409732	22.073652	30.000000	0.000000	71.839279	103.252352	40.804162
3.370340E+9	54.225002	71.476659	71.159516	71.476659	22.113529	30.000000	0.000000	71.997469	103.485990	40.901149
3.370340E+9	54.375953	71.547236	71.238006	71.547236	22.165400	30.000000	0.000000	72.046143	103.756519	40.930245
3.370340E+9	54.580774	71.627548	71.329151	71.627548	22.231102	30.000000	0.000000	72.070480	104.088531	40.920547
3.370340E+9	54.817468	71.715161	71.429344	71.715161	22.305559	30.000000	0.000000	72.070480	104.518917	40.872053
3.370340E+9	54.970312	71.800340	71.522558	71.800340	22.362627	30.000000	0.000000	72.082648	104.912414	40.862354
3.370340E+9	54.970312	71.872134	71.594074	71.872134	22.384988	30.000000	0.000000	72.021806	105.256723	40.842957
3.370340E+9	54.970312	71.937844	71.659530	71.937844	22.405453	30.000000	0.000000	72.046143	105.613329	40.813861
3.370340E+9	55.152231	71.995035	71.726499	71.995035	22.459775	30.000000	0.000000	72.082648	105.933045	40.842957
3.370340E+9	55.538929	72.043709	71.796279	72.043709	22.552685	30.000000	0.000000	72.179996	106.178980	40.842957
3.370340E+9	55.578395	72.081432	71.836047	72.081432	22.572435	30.000000	0.000000	72.216501	106.424915	40.959341
3.370340E+9	55.640701	72.116720	71.874652	72.116720	22.596032	30.000000	0.000000	72.350355	106.633960	41.066027
3.370340E+9	55.676242	72.165394	71.925124	72.165394	22.618446	30.000000	0.000000	72.532882	106.978269	41.240603
3.370340E+9	55.757495	72.217718	71.981763	72.217718	22.651235	30.000000	0.000000	72.593724	107.162720	41.444275
3.370340E+9	55.865996	72.270043	72.039917	72.270043	22.689555	30.000000	0.000000	72.593724	107.162720	41.444275
3.370340E+9	56.043523	72.326018	72.105544	72.326018	22.743019	30.000000	0.000000	72.642398	107.384062	41.415179
3.370340E+9	56.179263	72.390511	72.177366	72.390511	22.790778	30.000000	0.000000	72.666735	107.593107	41.453974
3.370340E+9	56.352938	72.453787	72.250098	72.453787	22.845906	30.000000	0.000000	72.678903	108.134164	41.531564
3.370340E+9	56.482886	72.510978	72.314353	72.510978	22.890316	30.000000	0.000000	72.654566	108.367803	41.492769
3.370340E+9	56.646695	72.546267	72.358661	72.546267	22.934735	30.000000	0.000000	72.532882	108.589145	41.531564
3.370340E+9	56.716052	72.560869	72.377087	72.560869	22.953450	30.000000	0.000000	72.362523	108.835080	41.599454
3.370340E+9	56.791580	72.535315	72.355802	72.535315	22.960718	30.000000	0.000000	72.094817	108.933454	41.618852
3.370340E+9	56.841721	72.472039	72.295472	72.472039	22.950872	30.000000	0.000000	71.900121	109.130202	41.628550
3.370340E+9	56.912772	72.384426	72.212021	72.384426	22.937543	30.000000	0.000000	71.717595	109.203983	41.657646
3.370340E+9	56.912772	72.291946	72.119761	72.291946	22.908237	30.000000	0.000000	71.668921	109.179389	41.541262
3.370340E+9	56.912772	72.197032	72.025073	72.197032	22.878161	30.000000	0.000000	71.693258	109.154796	41.647948
3.370340E+9	56.956775	72.105768	71.936463	72.105768	22.858136	30.000000	0.000000	71.754100	109.068718	41.764332
3.370340E+9	57.075902	72.029107	71.866573	72.029107	22.857897	30.000000	0.000000	71.912290	108.994938	41.822524
3.370340E+9	57.075902	71.959747	71.797369	71.959747	22.835886	30.000000	0.000000	71.960964	108.933454	41.929210
3.370340E+9	57.121566	71.902555	71.742829	71.902555	22.826947	30.000000	0.000000	71.960964	108.933454	42.016498
3.370340E+9	57.186255	71.859966	71.703906	71.859966	22.826467	30.000000	0.000000	71.936627	109.019531	42.045594
3.370340E+9	57.282088	71.838062	71.687341	71.838062	22.838829	30.000000	0.000000	71.875785	109.093312	41.890415
3.370340E+9	57.436072	71.833195	71.690989	71.833195	22.868334	30.000000	0.000000	71.851448	109.179389	41.938908
3.370340E+9	57.654987	71.841713	71.711589	71.841713	22.915223	30.000000	0.000000	71.802774	109.413027	41.919511
3.370340E+9	57.836405	71.857532	71.737415	71.857532	22.956909	30.000000	0.000000	71.827111	109.597479	41.793428
3.370340E+9	58.074769	71.880652	71.773695	71.880652	23.012484	30.000000	0.000000	71.924458	109.732743	41.628550
3.370340E+9	58.156914	71.908639	71.806193	71.908639	23.038066	30.000000	0.000000	72.033975	109.941788	41.667345
3.370340E+9	58.252181	71.936627	71.839423	71.936627	23.066322	30.000000	0.000000	72.192165	110.003272	41.599454
3.370340E+9	58.252181	71.974349	71.877095	71.974349	23.078417	30.000000	0.000000	72.338186	110.175427	41.560660
3.370340E+9	58.277824	72.029107	71.933203	72.029107	23.101175	30.000000	0.000000	72.508545	110.335285	41.589756
3.370340E+9	58.397462	72.106985	72.017630	72.106985	23.150444	30.000000	0.000000	72.715408	110.470549	41.502468
3.370340E+9	58.464238	72.210417	72.124654	72.210417	23.197233	30.000000	0.000000	72.910104	110.581220	41.560660
3.370340E+9	58.464238	72.334536	72.248625	72.334536	23.237105	30.000000	0.000000	73.092631	110.802562	41.628550
3.370340E+9	58.603855	72.482991	72.404713	72.482991	23.313309	30.000000	0.000000	73.287326	111.036200	41.560660
3.370340E+9	58.816933	72.643615	72.577115	72.643615	23.408607	30.000000	0.000000	73.433348	111.245245	41.502468
3.370340E+9	59.128517	72.800588	72.751472	72.800588	23.523189	30.000000	0.000000	73.494190	111.589554	41.473371
3.370340E+9	59.302393	72.949043	72.909636	72.949043	23.606971	30.000000	0.000000	73.518527	111.896973	41.492769
3.370340E+9	59.463132	73.081679	73.051290	73.081679	23.683078	30.000000	0.000000	73.518527	112.216689	41.308494
3.370340E+9	59.563566	73.199713	73.174965	73.199713	23.742105	30.000000	0.000000	73.518527	112.524108	41.337590
3.370340E+9	59.665564	73.311663	73.292667	73.311663	23.799555	30.000000	0.000000	73.628043	112.905308	41.163014
3.370340E+9	59.665564	73.402927	73.383907	73.402927	23.829182	30.000000	0.000000	73.628043	112.905308	41.163014
3.370340E+9	59.665564	73.485672	73.466631	73.485672	23.856044	30.000000	0.000000	73.737559	113.126650	41.143616
3.370340E+9	59.751469	73.569635	73.555466	73.569635	23.901173	30.000000	0.000000	73.932255	113.237321	41.182411
3.370340E+9	59.885740	73.673067	73.666542	73.673067	23.962758	30.000000	0.000000	74.321646	113.470959	41.337590
3.370340E+9	59.908805	73.772848	73.767633	73.772848	24.000028	30.000000	0.000000	74.431162	113.544740	41.434577
3.370340E+9	59.994214	73.881147	73.880816	73.881147	24.053117	30.000000	0.000000	74.577183	113.716894	41.502468
3.370340E+9	60.084072	73.991880	73.996703	73.991880	24.107989	30.000000	0.000000	74.625857	113.913643	41.580057
3.370340E+9	60.261918	74.107481	74.122533	74.107481	24.182977	30.000000	0.000000	74.674531	114.196468	41.589756
3.370340E+9	60.261918	74.214563	74.229638	74.214563	24.217920	30.000000	0.000000	74.589352	114.442404	41.570358
3.370340E+9	60.261918	74.305827	74.320920	74.305827	24.247702	30.000000	0.000000	74.540678	114.725229	41.463673
3.370340E+9	60.261918	74.389789	74.404899	74.389789	24.275101	30.000000	0.000000	74.467667	115.020352	41.512166
3.370340E+9	61.008579	74.454282	74.512585	74.454282	24.453802	30.000000	0.000000	74.382488	115.241693	41.560660
3.370340E+9	61.008579	74.482269	74.540594	74.482269	24.462994	30.000000	0.000000	74.212130	115.475332	41.531564
3.370340E+9	61.115019	74.451848	74.516313	74.451848	24.475506	30.000000	0.000000	74.017434	115.659783	41.677044
3.370340E+9	61.196341	74.391006	74.460124	74.391006	24.472689	30.000000	0.000000	73.822739	115.708970	41.793428
3.370340E+9	61.286303	74.300959	74.375195	74.300959	24.462058	30.000000	0.000000	73.676717	115.758158	41.832223
3.370340E+9	61.286303	74.198744	74.272878	74.198744	24.428406	30.000000	0.000000	73.603706	115.733564	41.968004
3.370340E+9	61.290953	74.092879	74.167175	74.092879	24.394531	30.000000	0.000000	73.615875	115.733564	42.055292
3.370340E+9	61.291665	74.005266	74.079515	74.005266	24.365834	30.000000	0.000000	73.713222	115.610596	42.191074
3.370340E+9	61.307687	73.939556	74.014662	73.939556	24.347567	30.000000	0.000000	73.883581	115.536816	42.278362
3.370340E+9	61.307687	73.894533	73.969592	73.894533	24.332741	30.000000	0.000000	74.017434	115.512222	42.501432
3.370340E+9	61.370549	73.871413	73.950064	73.871413	24.338326	30.000000	0.000000	74.151287	115.586003	42.559624
3.370340E+9	61.447927	73.866545	73.949641	73.866545	24.352970	30.000000	0.000000	74.163456	115.721267	42.627515
3.370340E+9	61.851255	73.864111	73.970418	73.864111	24.436921	30.000000	0.000000	73.993097	115.918016	42.666309
3.370340E+9	61.851255	73.864111	73.970418	73.864111	24.436921	30.000000	0.000000	73.822739	116.200841	42.685707
3.370340E+9	62.068843	73.858027	73.976858	73.858027	24.480672	30.000000	0.000000	73.615875	116.495964	42.520829
3.370340E+9	62.411350	73.840991	73.979538	73.840991	24.547108	30.000000	0.000000	73.433348	116.778789	42.433541
3.370340E+9	62.574720	73.813004	73.960918	73.813004	24.572200	30.000000	0.000000	73.336000	117.000131	42.268663
3.370340E+9	62.633650	73.775282	73.926518	73.775282	24.572048	30.000000	0.000000	73.336000	117.086208	42.268663
3.370340E+9	62.656833	73.726608	73.879080	73.726608	24.560714	30.000000	0.000000	73.396842	117.246066	42.355952
3.370340E+9	62.671353	73.671850	73.825045	73.671850	24.545525	30.000000	0.000000	73.469853	117.319847	42.482034
3.370340E+9	62.689775	73.606140	73.760259	73.606140	24.527502	30.000000	0.000000	73.494190	117.319847	42.598419
3.370340E+9	62.698440	73.542864	73.697348	73.542864	24.508236	30.000000	0.000000	73.530696	117.344441	42.802091
3.370340E+9	62.732199	73.497841	73.654170	73.497841	24.500314	30.000000	0.000000	73.542864	117.381331	42.889379
3.370340E+9	62.771848	73.482022	73.640595	73.482022	24.503358	30.000000	0.000000	73.664549	117.492002	42.957270
3.370340E+9	62.862604	73.494190	73.658006	73.494190	24.526460	30.000000	0.000000	73.737559	117.824014	43.034859
3.370340E+9	62.981268	73.524611	73.695320	73.524611	24.561531	30.000000	0.000000	73.737559	117.824014	43.034859
3.370340E+9	63.070150	73.564767	73.740686	73.564767	24.593627	30.000000	0.000000	73.737559	118.057653	43.054257
3.370340E+9	63.250914	73.600056	73.786474	73.600056	24.643452	30.000000	0.000000	73.688886	118.303588	43.025161
3.370340E+9	63.372760	73.619525	73.813019	73.619525	24.675623	30.000000	0.000000	73.591538	118.561821	42.966969
3.370340E+9	63.514879	73.624393	73.826097	73.624393	24.707188	30.000000	0.000000	73.518527	118.955317	42.850584
3.370340E+9	63.650358	73.629260	73.838797	73.629260	24.737372	30.000000	0.000000	73.542864	119.090582	42.918475
3.370340E+9	63.777119	73.645079	73.861982	73.645079	24.769415	30.000000	0.000000	73.688886	119.176659	42.918475
3.370340E+9	63.856399	73.681584	73.903177	73.681584	24.798424	30.000000	0.000000	73.907918	119.262736	42.996065
3.370340E+9	63.966678	73.730258	73.958378	73.730258	24.838101	30.000000	0.000000	74.151287	119.348814	43.122148
3.370340E+9	63.966678	73.792318	74.020629	73.792318	24.859008	30.000000	0.000000	74.358151	119.496375	43.209436
3.370340E+9	64.090476	73.875063	74.110809	73.875063	24.913094	30.000000	0.000000	74.565015	119.643936	43.267628
3.370340E+9	64.289635	73.973628	74.221259	73.973628	24.988579	30.000000	0.000000	74.723205	119.889872	43.277327
3.370340E+9	64.425980	74.090445	74.346405	74.090445	25.057023	30.000000	0.000000	74.857058	120.209588	43.267628
3.370340E+9	64.684184	74.223081	74.494568	74.223081	25.156897	30.000000	0.000000	74.917900	120.566194	43.131846
3.370340E+9	64.684184	74.364235	74.636238	74.364235	25.204739	30.000000	0.000000	74.930069	120.959691	43.054257
3.370340E+9	64.956902	74.507823	74.796341	74.507823	25.311787	30.000000	0.000000	74.978743	121.316297	42.918475
3.370340E+9	65.266324	74.641676	74.948904	74.641676	25.423678	30.000000	0.000000	75.027417	121.660607	42.879680
3.370340E+9	65.266324	74.762144	75.069867	74.762144	25.464710	30.000000	0.000000	75.112596	121.955729	42.831187
3.370340E+9	65.299316	74.858275	75.168340	74.858275	25.504560	30.000000	0.000000	75.112596	122.213962	42.889379
3.370340E+9	65.299316	74.951972	75.262425	74.951972	25.536483	30.000000	0.000000	75.295123	122.423007	42.937873
3.370340E+9	65.307905	75.037151	75.348465	75.037151	25.567358	30.000000	0.000000	75.416807	122.545974	43.025161
3.370340E+9	65.307905	75.121114	75.432776	75.121114	25.595967	30.000000	0.000000	75.562829	122.730426	43.141545
3.370340E+9	65.386383	75.206293	75.522961	75.206293	25.641975	30.000000	0.000000	75.708851	122.890284	43.257929
3.370340E+9	65.517892	75.292689	75.617528	75.292689	25.699937	30.000000	0.000000	75.781861	123.099329	43.277327
3.370340E+9	65.613586	75.382736	75.713653	75.382736	25.751448	30.000000	0.000000	75.830535	123.308374	43.432505
3.370340E+9	65.795616	75.472782	75.814935	75.472782	25.821790	30.000000	0.000000	75.879209	123.578903	43.461601
3.370340E+9	66.018871	75.561612	75.917488	75.561612	25.900815	30.000000	0.000000	75.915715	123.861729	43.471300
3.370340E+9	66.243322	75.641924	76.011593	75.641924	25.977324	30.000000	0.000000	75.915715	124.144555	43.432505
3.370340E+9	66.409906	75.719802	76.099824	75.719802	26.040482	30.000000	0.000000	75.891378	124.390490	43.490698
3.370340E+9	66.518069	75.775777	76.162563	75.775777	26.083402	30.000000	0.000000	75.854872	124.648723	43.432505
3.370340E+9	66.639016	75.818367	76.212626	75.818367	26.124554	30.000000	0.000000	75.842704	124.882361	43.490698
3.370340E+9	66.689299	75.848788	76.246224	75.848788	26.146057	30.000000	0.000000	75.867041	125.091407	43.577986
3.370340E+9	66.765872	75.868258	76.270394	75.868258	26.169560	30.000000	0.000000	75.903546	125.275858	43.548890
3.370340E+9	66.910755	75.887727	76.298674	75.887727	26.208066	30.000000	0.000000	75.976557	125.509497	43.801055
3.370340E+9	66.965949	75.913281	76.327685	75.913281	26.229009	30.000000	0.000000	76.086073	125.632465	43.810754
3.370340E+9	66.994206	75.941268	76.357525	75.941268	26.244887	30.000000	0.000000	76.159084	125.816916	43.956234
3.370340E+9	67.040492	75.968039	76.387229	75.968039	26.264311	30.000000	0.000000	76.183421	125.976774	43.995029
3.370340E+9	67.150301	75.994810	76.420761	75.994810	26.297714	30.000000	0.000000	76.183421	126.148929	44.004728
3.370340E+9	67.268313	76.021580	76.454794	76.021580	26.332947	30.000000	0.000000	76.159084	126.333381	44.043522
3.370340E+9	67.439975	76.042267	76.485952	76.042267	26.377916	30.000000	0.000000	76.061736	126.567020	44.024125
3.370340E+9	67.598330	76.075121	76.528559	76.075121	26.424219	30.000000	0.000000	76.171252	126.800658	44.043522
3.370340E+9	67.598330	76.104326	76.557938	76.104326	26.434363	30.000000	0.000000	76.159084	126.972813	43.965933
3.370340E+9	67.598330	76.131096	76.584868	76.131096	26.443662	30.000000	0.000000	76.171252	127.120375	44.033824
3.370340E+9	67.598330	76.145699	76.599557	76.145699	26.448734	30.000000	0.000000	76.122578	127.292530	44.111413
3.370340E+9	68.085061	76.142048	76.625325	76.142048	26.554959	30.000000	0.000000	76.049568	127.452388	44.111413
3.370340E+9	68.167205	76.117711	76.605805	76.117711	26.564622	30.000000	0.000000	75.915715	127.599949	44.227797
3.370340E+9	68.229916	76.073905	76.565512	76.073905	26.563187	30.000000	0.000000	75.745356	127.661433	44.237496
3.370340E+9	68.272729	76.017930	76.511764	76.017930	26.553094	30.000000	0.000000	75.623671	127.686026	44.208400
3.370340E+9	68.319493	75.963172	76.459476	75.963172	26.544285	30.000000	0.000000	75.611503	127.686026	44.169605
3.370340E+9	68.353840	75.923016	76.421133	75.923016	26.537828	30.000000	0.000000	75.660177	127.636839	44.150208
3.370340E+9	68.391681	75.890161	76.390347	75.890161	26.534687	30.000000	0.000000	75.842704	127.587652	44.179304
3.370340E+9	68.434502	75.873125	76.375785	75.873125	26.538171	30.000000	0.000000	75.988725	127.501575	44.285990
3.370340E+9	68.477766	75.869474	76.374723	75.869474	26.546433	30.000000	0.000000	76.134747	127.513872	44.276291
3.370340E+9	68.516643	75.890161	76.397895	75.890161	26.562246	30.000000	0.000000	76.329442	127.526168	44.344182
3.370340E+9	68.602216	75.924232	76.437368	75.924232	26.593059	30.000000	0.000000	76.390285	127.636839	44.382976
3.370340E+9	68.718637	75.963172	76.483614	75.963172	26.632415	30.000000	0.000000	76.305105	127.796697	44.402374
3.370340E+9	68.906735	76.004544	76.536662	76.004544	26.688512	30.000000	0.000000	76.159084	127.981149	44.305387
3.370340E+9	69.123728	76.042267	76.587804	76.042267	26.749794	30.000000	0.000000	76.000894	128.214788	44.159907
3.370340E+9	69.317407	76.069037	76.626522	76.069037	26.802129	30.000000	0.000000	75.879209	128.448427	43.995029
3.370340E+9	69.443354	76.088507	76.653783	76.088507	26.836919	30.000000	0.000000	75.854872	128.595988	43.830151
3.370340E+9	69.515414	76.094591	76.664291	76.094591	26.855052	30.000000	0.000000	75.903546	128.817330	43.810754
3.370340E+9	69.576678	76.110410	76.683953	76.110410	26.874231	30.000000	0.000000	76.146915	128.854220	43.878645
3.370340E+9	69.603519	76.134747	76.710105	76.134747	26.888785	30.000000	0.000000	76.378116	128.817330	43.956234
3.370340E+9	69.603519	76.166385	76.741983	76.166385	26.899958	30.000000	0.000000	76.645822	128.891111	44.179304
3.370340E+9	69.623001	76.212625	76.789758	76.212625	26.920620	30.000000	0.000000	76.852686	129.001782	44.247195
3.370340E+9	69.687690	76.285636	76.867265	76.285636	26.960805	30.000000	0.000000	77.035213	129.173937	44.218099
3.370340E+9	69.784786	76.384200	76.972507	76.384200	27.017279	30.000000	0.000000	77.144730	129.444466	44.373278
3.370340E+9	70.087956	76.507102	77.114903	76.507102	27.128469	30.000000	0.000000	77.229909	129.813369	44.363579
3.370340E+9	70.345950	76.639738	77.264418	76.639738	27.233280	30.000000	0.000000	77.205572	130.182273	44.295688
3.370340E+9	70.634706	76.773591	77.417120	76.773591	27.345681	30.000000	0.000000	77.193403	130.649550	44.189003
3.370340E+9	70.882261	76.897710	77.557541	76.897710	27.445614	30.000000	0.000000	77.144730	131.043047	44.159907
3.370340E+9	70.959013	76.998708	77.664146	76.998708	27.498969	30.000000	0.000000	77.156898	131.424247	44.150208
3.370340E+9	71.007110	77.075369	77.744444	77.075369	27.537207	30.000000	0.000000	77.144730	131.743964	44.169605
3.370340E+9	71.042939	77.127694	77.799440	77.127694	27.563997	30.000000	0.000000	77.169066	131.977603	44.256894
3.370340E+9	71.042939	77.170283	77.842400	77.170283	27.579217	30.000000	0.000000	77.278583	132.162054	44.373278
3.370340E+9	71.042939	77.210439	77.882906	77.210439	27.593568	30.000000	0.000000	77.436773	132.285022	44.606046
3.370340E+9	71.088051	77.256679	77.932346	77.256679	27.620305	30.000000	0.000000	77.607131	132.444880	44.887308
3.370340E+9	71.219135	77.307787	77.992035	77.307787	27.668278	30.000000	0.000000	77.740984	132.555551	45.003692
3.370340E+9	71.288897	77.371063	78.060205	77.371063	27.706749	30.000000	0.000000	77.838332	132.740003	45.139474
3.370340E+9	71.434233	77.440423	78.139224	77.440423	27.764595	30.000000	0.000000	77.887006	132.985939	45.197666
3.370340E+9	71.631832	77.519518	78.231343	77.519518	27.837900	30.000000	0.000000	77.935680	133.244171	45.149172
3.370340E+9	71.781080	77.588879	78.310652	77.588879	27.896806	30.000000	0.000000	77.850501	133.514701	44.945500
3.370340E+9	71.942677	77.657022	78.389525	77.657022	27.958169	30.000000	0.000000	77.826164	133.822120	44.741828
3.370340E+9	72.080818	77.723949	78.465725	77.723949	28.013818	30.000000	0.000000	77.838332	133.994275	44.528457
3.370340E+9	72.172150	77.788441	78.536554	77.788441	28.057949	30.000000	0.000000	77.923511	134.043462	44.441169
3.370340E+9	72.172150	77.855368	78.604124	77.855368	28.082089	30.000000	0.000000	78.106038	134.227914	44.412072
3.370340E+9	72.234743	77.923511	78.676851	77.923511	28.121011	30.000000	0.000000	78.288565	134.240211	44.441169
3.370340E+9	72.241967	78.002606	78.757164	78.002606	28.151212	30.000000	0.000000	78.531935	134.252508	44.353880
3.370340E+9	72.261465	78.092653	78.849309	78.092653	28.188188	30.000000	0.000000	78.738799	134.277101	44.586649
3.370340E+9	72.277785	78.196085	78.954771	78.196085	28.229276	30.000000	0.000000	78.921326	134.350882	44.693334
3.370340E+9	72.277785	78.309252	79.069036	78.309252	28.270130	30.000000	0.000000	79.067347	134.486146	44.780622
3.370340E+9	72.394446	78.435804	79.204188	78.435804	28.342735	30.000000	0.000000	79.116021	134.719785	44.770924
3.370340E+9	72.886001	78.557488	79.358208	78.557488	28.500414	30.000000	0.000000	79.043010	135.211657	44.732129
3.370340E+9	72.886001	78.677956	79.479904	78.677956	28.544119	30.000000	0.000000	79.043010	135.211657	44.732129
3.370340E+9	73.103119	78.783822	79.600659	78.783822	28.632952	30.000000	0.000000	78.982168	135.519076	44.635142
3.370340E+9	73.268033	78.865351	79.693541	78.865351	28.700947	30.000000	0.000000	78.921326	135.887980	44.615745
3.370340E+9	73.455121	78.935928	79.776796	78.935928	28.770217	30.000000	0.000000	78.994336	136.330664	44.703033
3.370340E+9	73.455121	78.985819	79.827219	78.985819	28.788401	30.000000	0.000000	79.030842	136.490523	44.848513
3.370340E+9	73.509205	79.023541	79.868799	79.023541	28.814769	30.000000	0.000000	79.116021	136.650381	44.993994
3.370340E+9	73.552311	79.060046	79.908451	79.060046	28.838144	30.000000	0.000000	79.286380	136.785645	45.149172
3.370340E+9	73.593336	79.085600	79.936903	79.085600	28.857047	30.000000	0.000000	79.322885	136.957801	45.362543
3.370340E+9	73.593336	79.111154	79.962732	79.111154	28.866371	30.000000	0.000000	79.371559	137.117659	45.498325
3.370340E+9	73.593336	79.145225	79.997171	79.145225	28.878803	30.000000	0.000000	79.383727	137.351298	45.566216
3.370340E+9	73.647662	79.180514	80.036319	79.180514	28.904385	30.000000	0.000000	79.395896	137.609530	45.682600
3.370340E+9	74.211042	79.219453	80.111820	79.219453	29.050559	30.000000	0.000000	79.371559	137.880060	45.828080
3.370340E+9	74.211042	79.264476	80.157351	79.264476	29.067069	30.000000	0.000000	79.371559	138.150589	45.789286
3.370340E+9	74.353210	79.298548	80.200946	79.298548	29.112934	30.000000	0.000000	79.335054	138.433415	45.828080
3.370340E+9	74.410702	79.324102	80.230489	79.324102	29.135819	30.000000	0.000000	79.286380	138.716241	45.934766
3.370340E+9	74.463028	79.336270	80.246164	79.336270	29.152582	30.000000	0.000000	79.237706	138.949880	46.041451
3.370340E+9	74.572500	79.336270	80.253210	79.336270	29.178309	30.000000	0.000000	79.286380	139.158926	46.128740
3.370340E+9	74.660517	79.328969	80.251491	79.328969	29.196313	30.000000	0.000000	79.249874	139.331081	46.274220
3.370340E+9	74.660517	79.324102	80.246567	79.324102	29.194522	30.000000	0.000000	79.322885	139.515533	46.419700
3.370340E+9	74.817042	79.321668	80.254185	79.321668	29.230430	30.000000	0.000000	79.359390	139.613907	46.574879
3.370340E+9	75.053744	79.327752	80.275595	79.327752	29.288368	30.000000	0.000000	79.456738	139.847546	46.730058
3.370340E+9	75.053744	79.337487	80.285446	79.337487	29.291962	30.000000	0.000000	79.468907	140.031998	46.894936
3.370340E+9	75.123489	79.353306	80.305952	79.353306	29.314226	30.000000	0.000000	79.529749	140.216450	46.778551
3.370340E+9	75.235187	79.373993	80.334095	79.373993	29.348186	30.000000	0.000000	79.541917	140.462385	47.040416
3.370340E+9	75.369564	79.392245	80.361246	79.392245	29.386616	30.000000	0.000000	79.468907	140.732915	47.079211
3.370340E+9	75.512249	79.417799	80.396332	79.417799	29.429740	30.000000	0.000000	79.493244	140.929664	47.118005
3.370340E+9	75.652143	79.438485	80.426320	79.438485	29.470436	30.000000	0.000000	79.493244	141.187896	47.127704
3.370340E+9	75.783309	79.465256	80.461912	79.465256	29.511361	30.000000	0.000000	79.517581	141.409238	47.214992
3.370340E+9	75.894828	79.482292	80.486383	79.482292	29.544054	30.000000	0.000000	79.493244	141.605987	47.273184
3.370340E+9	75.894828	79.499328	80.503634	79.499328	29.550387	30.000000	0.000000	79.529749	141.815033	47.399267
3.370340E+9	75.894828	79.515147	80.519653	79.515147	29.556267	30.000000	0.000000	79.614928	141.999485	47.428363
3.370340E+9	75.961582	79.535833	80.544927	79.535833	29.579754	30.000000	0.000000	79.675771	142.110156	47.583542
3.370340E+9	76.197072	79.556520	80.581151	79.556520	29.643219	30.000000	0.000000	79.736613	142.257717	47.690228
3.370340E+9	76.313920	79.579640	80.612155	79.579640	29.679531	30.000000	0.000000	79.773118	142.479059	47.787215
3.370340E+9	76.442962	79.621012	80.662450	79.621012	29.725577	30.000000	0.000000	79.882635	142.835666	47.942394
3.370340E+9	76.542561	79.657518	80.705910	79.657518	29.762855	30.000000	0.000000	79.858298	143.044712	47.942394
3.370340E+9	76.734826	79.696457	80.757877	79.696457	29.823101	30.000000	0.000000	79.882635	143.290648	48.010284
3.370340E+9	76.873120	79.730529	80.801413	79.730529	29.868751	30.000000	0.000000	79.858298	143.524287	48.019983
3.370340E+9	77.018909	79.768251	80.849150	79.768251	29.917598	30.000000	0.000000	79.870466	143.733332	48.010284
3.370340E+9	77.097898	79.810841	80.897473	79.810841	29.952397	30.000000	0.000000	79.955645	143.917784	48.116970
3.370340E+9	77.218650	79.848563	80.943597	79.848563	29.995356	30.000000	0.000000	79.992151	144.102236	48.107271
3.370340E+9	77.277962	79.882635	80.982014	79.882635	30.022312	30.000000	0.000000	80.016488	144.286688	48.136367
3.370340E+9	77.371240	79.917923	81.023890	79.917923	30.057855	30.000000	0.000000	80.089498	144.446547	48.223655
3.370340E+9	77.450227	79.956862	81.068539	79.956862	30.091381	30.000000	0.000000	80.162509	144.606405	48.310944
3.370340E+9	77.536738	79.993368	81.111220	79.993368	30.125814	30.000000	0.000000	80.247689	144.766263	48.378834
3.370340E+9	77.639310	80.031090	81.156195	80.031090	30.164575	30.000000	0.000000	80.235520	144.938418	48.446725
3.370340E+9	77.761573	80.074896	81.208641	80.074896	30.210382	30.000000	0.000000	80.320699	145.085980	48.543712
3.370340E+9	77.861306	80.124787	81.265789	80.124787	30.253125	30.000000	0.000000	80.357205	145.221245	48.553411
3.370340E+9	77.987480	80.178328	81.328390	80.178328	30.303634	30.000000	0.000000	80.405879	145.467181	48.611603
3.370340E+9	78.120377	80.222135	81.381572	80.222135	30.352129	30.000000	0.000000	80.393710	145.663929	48.679494
3.370340E+9	78.237235	80.265941	81.433711	80.265941	30.396814	30.000000	0.000000	80.430216	145.872975	48.640699
3.370340E+9	78.237235	80.307314	81.475685	80.307314	30.412482	30.000000	0.000000	80.430216	146.045130	48.863769
3.370340E+9	78.237235	80.342603	81.511487	80.342603	30.425845	30.000000	0.000000	80.442384	146.217285	48.951057
3.370340E+9	78.237235	80.375457	81.544820	80.375457	30.438288	30.000000	0.000000	80.491058	146.401737	49.096537
3.370340E+9	78.354091	80.404662	81.582164	80.404662	30.477516	30.000000	0.000000	80.539732	146.635376	49.164428
3.370340E+9	78.354091	80.435083	81.613031	80.435083	30.489047	30.000000	0.000000	80.539732	146.844422	49.300210
3.370340E+9	78.354091	80.459420	81.637724	80.459420	30.498272	30.000000	0.000000	80.564069	146.979687	49.358402
3.370340E+9	79.015095	80.483757	81.706156	80.483757	30.667190	30.000000	0.000000	80.600574	147.188732	49.445690
3.370340E+9	79.015095	80.505660	81.728391	80.505660	30.675536	30.000000	0.000000	80.624911	147.422372	49.474786
3.370340E+9	79.155537	80.536081	81.768585	80.536081	30.721123	30.000000	0.000000	80.697922	147.606824	49.397196
3.370340E+9	79.252667	80.567719	81.807152	80.567719	30.756721	30.000000	0.000000	80.746596	147.766682	49.242017
3.370340E+9	79.343169	80.609092	81.855171	80.609092	30.794457	30.000000	0.000000	80.843943	147.901947	49.096537
3.370340E+9	79.457278	80.665067	81.919596	80.665067	30.843534	30.000000	0.000000	81.002134	148.000321	48.980153
3.370340E+9	79.514836	80.739295	81.998808	80.739295	30.885901	30.000000	0.000000	81.233334	148.049508	48.941358
3.370340E+9	79.557130	80.822040	82.085663	80.822040	30.927844	30.000000	0.000000	81.367188	148.098696	48.999550
3.370340E+9	79.604329	80.926689	82.195097	80.926689	30.979387	30.000000	0.000000	81.586220	148.110992	49.028646
3.370340E+9	79.657006	81.049591	82.323445	81.049591	31.039290	30.000000	0.000000	81.793084	148.160180	49.125633
3.370340E+9	79.657006	81.185877	82.461874	81.185877	31.091483	30.000000	0.000000	81.963443	148.233960	49.212921
3.370340E+9	79.726638	81.331899	82.614862	81.331899	31.164459	30.000000	0.000000	82.085127	148.553677	49.329306
3.370340E+9	79.964803	81.464535	82.765601	81.464535	31.273739	30.000000	0.000000	82.024285	148.799613	49.397196
3.370340E+9	80.143713	81.586220	82.901282	81.586220	31.364460	30.000000	0.000000	81.963443	149.057846	49.339004
3.370340E+9	80.372525	81.690869	83.023062	81.690869	31.461082	30.000000	0.000000	81.890432	149.352969	49.406895
3.370340E+9	80.585417	81.766313	83.114131	81.766313	31.542691	30.000000	0.000000	81.756579	149.611202	49.406895
3.370340E+9	80.745575	81.812554	83.171974	81.812554	31.600111	30.000000	0.000000	81.695736	149.844841	49.494183
3.370340E+9	80.867448	81.847842	83.216106	81.847842	31.643888	30.000000	0.000000	81.720073	150.053887	49.552375
3.370340E+9	80.938283	81.861227	83.234516	81.861227	31.666592	30.000000	0.000000	81.720073	150.127668	49.756048
3.370340E+9	80.976101	81.864878	83.240792	81.864878	31.677366	30.000000	0.000000	81.829589	150.361307	49.930624
3.370340E+9	81.016540	81.850276	83.228685	81.850276	31.681725	30.000000	0.000000	81.817421	150.496572	50.163393
3.370340E+9	81.063764	81.832023	83.213326	81.832023	31.686348	30.000000	0.000000	81.902600	150.619540	50.134297
3.370340E+9	81.150463	81.823505	83.210542	81.823505	31.704510	30.000000	0.000000	81.939106	150.754805	50.464052
3.370340E+9	81.220033	81.823505	83.215260	81.823505	31.721734	30.000000	0.000000	81.963443	150.926960	50.648327
3.370340E+9	81.349190	81.830806	83.231447	81.830806	31.756555	30.000000	0.000000	81.963443	151.185193	50.755012
3.370340E+9	81.502886	81.846625	83.257970	81.846625	31.800788	30.000000	0.000000	81.914769	151.406535	50.822903
3.370340E+9	81.678914	81.866095	83.289734	81.866095	31.852014	30.000000	0.000000	81.890432	151.615581	50.968384
3.370340E+9	81.845928	81.869745	83.304800	81.869745	31.894885	30.000000	0.000000	81.756579	151.886111	50.987781
3.370340E+9	81.972144	81.853926	83.297286	81.853926	31.920056	30.000000	0.000000	81.561883	152.119750	51.075069
3.370340E+9	82.115568	81.807686	83.259981	81.807686	31.937625	30.000000	0.000000	81.367188	152.365686	51.162357
3.370340E+9	82.200948	81.738326	83.195191	81.738326	31.931730	30.000000	0.000000	81.123818	152.476357	51.142960
3.370340E+9	82.200948	81.650713	83.106016	81.650713	31.897503	30.000000	0.000000	81.026471	152.525545	51.152659
3.370340E+9	82.232338	81.557016	83.012778	81.557016	31.868672	30.000000	0.000000	81.002134	152.525545	51.123563
3.370340E+9	82.282106	81.468186	82.925734	81.468186	31.846272	30.000000	0.000000	81.075144	152.476357	51.210851
3.370340E+9	82.289882	81.401259	82.858137	81.401259	31.822032	30.000000	0.000000	81.294177	152.377983	51.317536
3.370340E+9	82.313502	81.357453	82.815144	81.357453	31.810742	30.000000	0.000000	81.476704	152.255015	51.463017
3.370340E+9	82.313502	81.341634	82.799042	81.341634	31.804557	30.000000	0.000000	81.732242	152.242718	51.589100
3.370340E+9	82.313502	81.365971	82.823815	81.365971	31.814073	30.000000	0.000000	81.999948	152.205828	51.695785
3.370340E+9	82.372716	81.420729	82.883565	81.420729	31.850126	30.000000	0.000000	82.109464	152.353389	51.783073
3.370340E+9	82.795705	81.499824	82.992779	81.499824	31.985848	30.000000	0.000000	82.158138	152.857558	51.744279
3.370340E+9	82.795705	81.603256	83.098106	81.603256	32.026441	30.000000	0.000000	82.158138	152.857558	51.744279
3.370340E+9	83.071041	81.716423	83.232097	81.716423	32.139319	30.000000	0.000000	82.158138	153.177275	51.550305
3.370340E+9	83.433595	81.823505	83.365914	81.823505	32.271796	30.000000	0.000000	82.072959	153.558476	51.317536
3.370340E+9	83.703342	81.926937	83.489751	81.926937	32.379975	30.000000	0.000000	82.109464	154.124129	50.871397
3.370340E+9	83.703342	82.021851	83.586476	82.021851	32.417488	30.000000	0.000000	82.243317	154.296285	50.813205
3.370340E+9	83.772013	82.117982	83.689152	82.117982	32.472685	30.000000	0.000000	82.438013	154.406956	50.861698
3.370340E+9	83.805919	82.210462	83.785732	82.210462	32.517761	30.000000	0.000000	82.657045	154.493034	50.890794
3.370340E+9	83.809756	82.304160	83.881488	82.304160	32.555786	30.000000	0.000000	82.936920	154.493034	51.075069
3.370340E+9	83.809756	82.406375	83.985662	82.406375	32.596218	30.000000	0.000000	83.131616	154.542221	51.239947
3.370340E+9	83.817614	82.518325	84.100299	82.518325	32.642478	30.000000	0.000000	83.277637	154.677486	51.443619
3.370340E+9	83.823879	82.641226	84.225990	82.641226	32.692675	30.000000	0.000000	83.387153	154.861938	51.521209
3.370340E+9	84.031201	82.767778	84.369315	82.767778	32.795121	30.000000	0.000000	83.423659	155.169358	51.530907
3.370340E+9	84.031201	82.900415	84.504518	82.900415	32.847676	30.000000	0.000000	83.399322	155.439888	51.579401
3.370340E+9	84.302579	83.024533	84.649890	83.024533	32.965688	30.000000	0.000000	83.350648	155.735011	51.366030
3.370340E+9	84.584232	83.134049	84.781160	83.134049	33.080769	30.000000	0.000000	83.338480	156.067025	51.210851
3.370340E+9	84.788672	83.220445	84.883527	83.220445	33.167211	30.000000	0.000000	83.301974	156.325258	51.084768
3.370340E+9	84.952548	83.289806	84.965720	83.289806	33.236647	30.000000	0.000000	83.350648	156.509710	51.094467
3.370340E+9	84.952548	83.344564	85.021580	83.344564	33.258499	30.000000	0.000000	83.484501	156.620382	51.045973
3.370340E+9	84.984087	83.400539	85.080888	83.400539	33.288892	30.000000	0.000000	83.691365	156.657272	51.172056
3.370340E+9	84.984087	83.463815	85.145439	83.463815	33.314148	30.000000	0.000000	83.910398	156.718756	51.414523
3.370340E+9	85.007710	83.536826	85.221576	83.536826	33.349335	30.000000	0.000000	84.117262	156.743350	51.579401
3.370340E+9	85.019584	83.619571	85.306824	83.619571	33.385410	30.000000	0.000000	84.251115	156.866318	51.744279
3.370340E+9	85.066827	83.713268	85.405730	83.713268	33.434935	30.000000	0.000000	84.336294	156.976989	51.899458
3.370340E+9	85.169351	83.798448	85.499842	83.798448	33.495283	30.000000	0.000000	84.202441	157.210628	52.035239
3.370340E+9	85.312960	83.860507	85.573273	83.860507	33.557008	30.000000	0.000000	83.959072	157.518049	52.083733
3.370340E+9	85.858122	83.892145	85.644000	83.892145	33.710028	30.000000	0.000000	83.618354	157.800875	52.103130
3.370340E+9	85.858122	83.892145	85.644000	83.892145	33.710028	30.000000	0.000000	83.350648	158.009921	52.074034
3.370340E+9	86.029881	83.858073	85.621337	83.858073	33.740593	30.000000	0.000000	83.143784	158.145186	52.035239
3.370340E+9	86.110975	83.788713	85.556239	83.788713	33.733572	30.000000	0.000000	82.997762	158.292748	52.093431
3.370340E+9	86.142572	83.704751	85.472732	83.704751	33.707899	30.000000	0.000000	83.070773	158.305045	52.151623
3.370340E+9	86.142572	83.611053	85.377056	83.611053	33.670167	30.000000	0.000000	83.180289	158.243561	52.248610
3.370340E+9	86.152137	83.524657	85.289508	83.524657	33.637832	30.000000	0.000000	83.387153	158.157483	52.510475
3.370340E+9	86.160115	83.447996	85.211787	83.447996	33.609005	30.000000	0.000000	83.569680	158.132889	52.733545
3.370340E+9	86.166193	83.415141	85.178665	83.415141	33.597332	30.000000	0.000000	83.873892	158.182077	52.937217
3.370340E+9	86.203537	83.423659	85.189987	83.423659	33.610342	30.000000	0.000000	84.044251	158.194373	53.082697
3.370340E+9	86.306016	83.478417	85.253111	83.478417	33.658715	30.000000	0.000000	84.165936	158.464903	53.199082
3.370340E+9	86.583472	83.559946	85.355914	83.559946	33.762938	30.000000	0.000000	84.165936	159.165822	53.043903
3.370340E+9	86.949671	83.662161	85.486177	83.662161	33.898623	30.000000	0.000000	84.165936	159.165822	53.043903
3.370340E+9	87.234850	83.753424	85.599605	83.753424	34.009262	30.000000	0.000000	83.910398	159.583913	53.189383
3.370340E+9	87.384517	83.803315	85.661197	83.803315	34.068230	30.000000	0.000000	83.569680	159.989708	53.199082
3.370340E+9	87.517991	83.798448	85.665680	83.798448	34.100785	30.000000	0.000000	83.131616	160.555362	53.121492
3.370340E+9	87.580777	83.761942	85.632810	83.761942	34.102173	30.000000	0.000000	83.022099	160.690627	53.169986
3.370340E+9	87.580777	83.709618	85.579317	83.709618	34.080870	30.000000	0.000000	83.046436	160.715220	53.266972
3.370340E+9	87.584576	83.641474	85.509920	83.641474	34.054108	30.000000	0.000000	83.192458	160.666033	53.315466
3.370340E+9	87.566922	83.578198	85.443983	83.578198	34.023788	30.000000	0.000000	83.411490	160.616846	53.577330
3.370340E+9	87.566922	83.530741	85.395466	83.530741	34.004469	30.000000	0.000000	83.691365	160.555362	53.800400
3.370340E+9	87.566922	83.511272	85.375562	83.511272	33.996543	30.000000	0.000000	83.971240	160.543065	54.033169
3.370340E+9	87.574976	83.507621	85.372399	83.507621	33.997134	30.000000	0.000000	84.129430	160.641439	54.178649
3.370340E+9	87.675225	83.546560	85.419294	83.546560	34.038861	30.000000	0.000000	84.299789	160.838188	54.333828
3.370340E+9	87.675225	83.628089	85.502650	83.628089	34.072078	30.000000	0.000000	84.384968	161.096422	54.353225
3.370340E+9	87.998537	83.749774	85.649989	83.749774	34.205363	30.000000	0.000000	84.348463	161.453029	54.246540
3.370340E+9	88.410309	83.884844	85.817405	83.884844	34.367439	30.000000	0.000000	84.372800	161.883418	54.091361
3.370340E+9	88.827440	84.007745	85.972883	84.007745	34.526398	30.000000	0.000000	84.275452	162.190838	53.858592
3.370340E+9	88.827440	84.114828	86.082471	84.114828	34.570408	30.000000	0.000000	84.263283	162.535149	53.722811
3.370340E+9	88.931490	84.212176	86.189540	84.212176	34.637596	30.000000	0.000000	84.384968	162.756492	53.703413
3.370340E+9	88.966999	84.297355	86.279263	84.297355	34.681919	30.000000	0.000000	84.543158	162.879460	53.645221
3.370340E+9	88.997950	84.372800	86.358701	84.372800	34.721062	30.000000	0.000000	84.725685	162.965538	53.732509
3.370340E+9	89.009863	84.454328	86.443003	84.454328	34.757734	30.000000	0.000000	84.944718	163.014725	53.955579
3.370340E+9	89.009863	84.539508	86.530188	84.539508	34.792791	30.000000	0.000000	85.151582	163.039319	54.149553
3.370340E+9	89.009863	84.640506	86.633565	84.640506	34.834357	30.000000	0.000000	85.394951	163.113100	54.372623
3.370340E+9	89.045153	84.756106	86.754430	84.756106	34.891216	30.000000	0.000000	85.504467	163.248365	54.585994
3.370340E+9	89.145411	84.872924	86.881236	84.872924	34.965719	30.000000	0.000000	85.540973	163.494301	54.760570
3.370340E+9	89.145411	84.993392	87.004554	84.993392	35.015349	30.000000	0.000000	85.480130	163.691050	54.896352
3.370340E+9	89.145411	85.108992	87.122890	85.108992	35.062973	30.000000	0.000000	85.419288	164.059955	55.022435
3.370340E+9	89.373890	85.202689	87.235363	85.202689	35.162034	30.000000	0.000000	85.321940	164.355078	55.041832
3.370340E+9	90.037825	85.265965	87.346838	85.265965	35.343373	30.000000	0.000000	85.175919	164.711686	55.061230
3.370340E+9	90.146268	85.286652	87.371513	85.286652	35.320960	30.000000	0.000000	84.932549	164.994513	55.255204
3.370340E+9	90.203113	85.251363	87.337187	85.251363	35.290113	30.000000	0.000000	84.591832	165.191262	55.420081
3.370340E+9	90.316801	85.182003	87.269776	85.182003	35.228968	30.000000	0.000000	84.457979	165.289637	55.546164
3.370340E+9	90.316801	85.073703	87.158822	85.073703	35.184178	30.000000	0.000000	84.311957	165.363418	55.594658
3.370340E+9	90.332190	84.955669	87.038387	84.955669	35.130985	30.000000	0.000000	84.324126	165.363418	55.672247
3.370340E+9	90.340390	84.841286	86.921461	84.841286	35.081355	30.000000	0.000000	84.397136	165.277340	55.778933
3.370340E+9	90.350054	84.748805	86.827022	84.748805	35.040373	30.000000	0.000000	84.555327	165.142075	55.895317
3.370340E+9	90.360215	84.683096	86.760025	84.683096	35.010323	30.000000	0.000000	84.762191	165.068294	56.128086
3.370340E+9	90.375602	84.647807	86.724361	84.647807	34.991373	30.000000	0.000000	84.969055	165.031404	56.331758
3.370340E+9	90.407390	84.645373	86.722880	84.645373	34.981358	30.000000	0.000000	85.151582	165.068294	56.477238
3.370340E+9	90.496026	84.678228	86.759366	84.678228	34.969812	30.000000	0.000000	85.261098	165.154372	56.486937
3.370340E+9	90.714419	84.756106	86.846122	84.756106	34.940034	30.000000	0.000000	85.370614	165.301934	56.535430
3.370340E+9	91.043226	84.859538	86.962594	84.859538	34.889367	30.000000	0.000000	85.492299	165.523276	56.428745
3.370340E+9	91.273221	84.987307	87.100874	84.987307	34.876579	30.000000	0.000000	85.589647	165.769213	56.331758
3.370340E+9	91.430293	85.129678	87.251807	85.129678	34.890341	30.000000	0.000000	85.747837	166.064337	56.263867
3.370340E+9	91.534272	85.295170	87.424753	85.295170	34.928553	30.000000	0.000000	86.052048	166.334867	56.234771
3.370340E+9	91.581418	85.444842	87.579674	85.444842	34.976396	30.000000	0.000000	86.052048	166.334867	56.234771
3.370340E+9	91.631860	85.595731	87.735953	85.595731	35.023749	30.000000	0.000000	86.271081	166.445538	56.380251
3.370340E+9	91.661051	85.747837	87.892801	85.747837	35.077632	30.000000	0.000000	86.490113	166.556209	56.486937
3.370340E+9	91.692442	85.921846	88.072175	85.921846	35.139814	30.000000	0.000000	86.891673	166.728365	56.952474
3.370340E+9	91.731307	86.111674	88.268010	86.111674	35.206280	30.000000	0.000000	87.159379	166.863630	57.214339
3.370340E+9	91.798263	86.302719	88.466007	86.302719	35.265106	30.000000	0.000000	87.281064	167.072676	57.437409
3.370340E+9	91.940001	86.490113	88.662696	86.490113	35.300784	30.000000	0.000000	87.366243	167.355503	57.641081
3.370340E+9	92.324944	86.672641	88.862313	86.672641	35.264053	30.000000	0.000000	87.414917	167.638330	57.893247
3.370340E+9	92.324944	86.836915	89.030738	86.836915	35.330890	30.000000	0.000000	87.390580	167.933454	58.048426
3.370340E+9	92.548334	86.968334	89.172754	86.968334	35.319639	30.000000	0.000000	87.366243	168.253171	58.164810
3.370340E+9	92.671133	87.098537	89.310261	87.098537	35.336901	30.000000	0.000000	87.354075	168.572889	58.213304
3.370340E+9	92.912602	87.199535	89.421703	87.199535	35.307793	30.000000	0.000000	87.281064	168.818825	58.223002
3.370340E+9	92.912602	87.268896	89.492831	87.268896	35.335878	30.000000	0.000000	87.183716	168.978684	58.281195
3.370340E+9	92.979532	87.282281	89.508743	87.282281	35.321860	30.000000	0.000000	87.025526	169.077059	58.378182
3.370340E+9	93.016923	87.272546	89.499980	87.272546	35.307065	30.000000	0.000000	87.062032	169.113949	58.513963
3.370340E+9	93.028997	87.255510	89.482903	87.255510	35.296668	30.000000	0.000000	87.110706	169.064762	58.659444
3.370340E+9	93.028997	87.237258	89.464185	87.237258	35.289284	30.000000	0.000000	87.183716	169.015574	58.911609
3.370340E+9	93.028997	87.233607	89.460441	87.233607	35.287808	30.000000	0.000000	87.378412	168.917200	59.047391
3.370340E+9	93.028997	87.246992	89.474168	87.246992	35.293222	30.000000	0.000000	87.524434	168.818825	59.183173
3.370340E+9	93.038713	87.270112	89.498195	87.270112	35.299754	30.000000	0.000000	87.597444	168.818825	59.561422
3.370340E+9	93.147753	87.295666	89.527961	87.295666	35.278431	30.000000	0.000000	87.609613	168.880309	59.784492
3.370340E+9	93.313099	87.323654	89.562061	87.323654	35.241734	30.000000	0.000000	87.560939	168.954090	59.968767
3.370340E+9	93.559696	87.355292	89.602559	87.355292	35.182914	30.000000	0.000000	87.500097	169.040168	59.988164
3.370340E+9	93.763315	87.397881	89.652889	87.397881	35.140959	30.000000	0.000000	87.451423	169.163136	60.056055
3.370340E+9	93.901395	87.435604	89.696091	87.435604	35.116043	30.000000	0.000000	87.439254	169.273808	60.123946
3.370340E+9	93.982674	87.472109	89.736194	87.472109	35.107106	30.000000	0.000000	87.475760	169.372182	60.143343
3.370340E+9	93.982674	87.507398	89.772396	87.507398	35.121269	30.000000	0.000000	87.536602	169.470557	60.182138
3.370340E+9	94.073700	87.541469	89.810322	87.541469	35.108500	30.000000	0.000000	87.719129	169.421370	60.230631
3.370340E+9	94.097236	87.585276	89.856033	87.585276	35.119229	30.000000	0.000000	87.962499	169.433667	60.337317
3.370340E+9	94.138901	87.649769	89.923560	87.649769	35.132973	30.000000	0.000000	88.242373	169.421370	60.618579
3.370340E+9	94.138901	87.739816	90.015943	87.739816	35.169066	30.000000	0.000000	88.510080	169.421370	60.686470
3.370340E+9	94.197391	87.872452	90.153937	87.872452	35.205181	30.000000	0.000000	88.887302	169.470557	60.851348
3.370340E+9	94.295863	88.039160	90.328206	88.039160	35.243217	30.000000	0.000000	89.167177	169.593525	60.977431
3.370340E+9	94.409796	88.237506	90.535457	88.237506	35.289282	30.000000	0.000000	89.434884	169.802571	61.093815
3.370340E+9	94.701838	88.457755	90.771068	88.457755	35.291750	30.000000	0.000000	89.641748	170.109992	61.152007
3.370340E+9	94.886982	88.687740	91.013181	88.687740	35.329117	30.000000	0.000000	89.775601	170.429710	61.210199
3.370340E+9	95.113822	88.920157	91.259201	88.920157	35.354923	30.000000	0.000000	89.860780	170.810911	61.142308
3.370340E+9	95.315851	89.139190	91.490695	89.139190	35.382421	30.000000	0.000000	89.909454	171.118332	60.967732
3.370340E+9	95.462422	89.343620	91.705387	89.343620	35.420253	30.000000	0.000000	90.006802	171.536424	60.851348
3.370340E+9	95.567274	89.552918	91.923708	89.552918	35.472182	30.000000	0.000000	90.335351	172.028297	60.599182
3.370340E+9	95.605307	89.735445	92.112336	89.735445	35.533198	30.000000	0.000000	90.335351	172.028297	60.599182
3.370340E+9	95.634883	89.904587	92.286946	89.904587	35.591384	30.000000	0.000000	90.578720	172.188156	60.657374
3.370340E+9	95.650198	90.068861	92.456086	90.068861	35.651858	30.000000	0.000000	90.809921	172.298828	60.734963
3.370340E+9	95.658661	90.275725	92.668717	90.275725	35.731215	30.000000	0.000000	91.503524	172.409499	61.142308
3.370340E+9	95.682166	90.491107	92.890599	90.491107	35.809433	30.000000	0.000000	91.795568	172.495577	61.404173
3.370340E+9	95.723905	90.711357	93.118095	90.711357	35.884078	30.000000	0.000000	91.978095	172.643139	61.598147
3.370340E+9	95.818728	90.936474	93.352388	90.936474	35.944636	30.000000	0.000000	92.111948	172.839888	61.743627
3.370340E+9	95.970589	91.164024	93.591126	91.164024	35.988845	30.000000	0.000000	92.184959	173.098122	61.966697
3.370340E+9	96.249006	91.386707	93.829182	91.386707	35.992745	30.000000	0.000000	92.233633	173.442433	62.044287
3.370340E+9	96.494179	91.577752	94.033663	91.577752	35.993902	30.000000	0.000000	92.245801	173.749854	62.180069
3.370340E+9	96.697589	91.765147	94.233004	91.765147	36.005997	30.000000	0.000000	92.209296	174.081868	62.306152
3.370340E+9	96.849423	91.925771	94.403120	91.925771	36.023011	30.000000	0.000000	92.184959	174.401586	62.461331
3.370340E+9	96.972608	92.065708	94.551030	92.065708	36.040474	30.000000	0.000000	92.209296	174.659820	62.674702
3.370340E+9	97.141493	92.135068	94.628026	92.135068	36.016368	30.000000	0.000000	92.197128	174.918053	62.907470
3.370340E+9	97.216770	92.171574	94.668088	92.171574	36.007788	30.000000	0.000000	92.160622	175.176287	63.130540
3.370340E+9	97.216770	92.199561	94.696834	92.199561	36.018721	30.000000	0.000000	92.257970	175.286958	63.324514
3.370340E+9	97.216770	92.223898	94.721830	92.223898	36.028229	30.000000	0.000000	92.355318	175.446817	63.566982
3.370340E+9	97.363455	92.247018	94.750585	92.247018	35.992711	30.000000	0.000000	92.416160	175.606676	63.848244
3.370340E+9	97.401600	92.260404	94.765636	92.260404	35.986349	30.000000	0.000000	92.367486	175.803425	64.061615
3.370340E+9	97.500159	92.264054	94.772750	92.264054	35.957846	30.000000	0.000000	92.282307	175.987878	64.177999
3.370340E+9	97.600154	92.249452	94.761163	92.249452	35.921804	30.000000	0.000000	92.063274	176.135440	64.265288
3.370340E+9	97.600154	92.225115	94.736163	92.225115	35.912327	30.000000	0.000000	91.941590	176.295299	64.294384
3.370340E+9	97.600154	92.187393	94.697414	92.187393	35.897638	30.000000	0.000000	91.832073	176.455158	64.255589
3.370340E+9	97.740533	92.147237	94.660948	92.147237	35.839452	30.000000	0.000000	91.795568	176.528939	64.158602
3.370340E+9	98.074546	92.121683	94.646070	92.121683	35.728358	30.000000	0.000000	91.905084	176.565829	64.129506
3.370340E+9	98.112727	92.092479	94.617364	92.092479	35.705477	30.000000	0.000000	91.965926	176.541235	64.100410
3.370340E+9	98.137574	92.059624	94.584454	92.059624	35.685223	30.000000	0.000000	92.026769	176.553532	64.119807
3.370340E+9	98.154732	92.030419	94.555032	92.030419	35.668714	30.000000	0.000000	92.124117	176.541235	64.177999
3.370340E+9	98.197971	92.012167	94.537748	92.012167	35.648570	30.000000	0.000000	92.184959	176.528939	64.216794
3.370340E+9	98.286593	92.017034	94.545760	92.017034	35.623668	30.000000	0.000000	92.330981	176.541235	64.265288
3.370340E+9	98.424886	92.052323	94.586718	92.052323	35.595525	30.000000	0.000000	92.416160	176.565829	64.245890
3.370340E+9	98.588808	92.124117	94.666062	92.124117	35.573714	30.000000	0.000000	92.659530	176.651907	64.226493
3.370340E+9	98.717126	92.227549	94.776715	92.227549	35.574819	30.000000	0.000000	92.866394	176.688798	64.207095
3.370340E+9	98.890951	92.352884	94.911434	92.352884	35.570504	30.000000	0.000000	93.048921	176.922437	64.226493
3.370340E+9	99.049849	92.483087	95.050662	92.483087	35.572466	30.000000	0.000000	93.207111	177.156077	64.207095
3.370340E+9	99.211408	92.623024	95.199999	92.623024	35.577242	30.000000	0.000000	93.365301	177.438905	64.119807
3.370340E+9	99.368002	92.773913	95.360437	92.773913	35.587599	30.000000	0.000000	93.535660	177.709435	64.255589
3.370340E+9	99.490046	92.929670	95.524713	92.929670	35.610198	30.000000	0.000000	93.681682	178.029153	64.265288
3.370340E+9	99.663947	93.090294	95.695781	93.090294	35.618744	30.000000	0.000000	93.791198	178.336574	64.313781
3.370340E+9	99.784719	93.250918	95.865045	93.250918	35.643340	30.000000	0.000000	93.937220	178.619401	64.410768
3.370340E+9	99.883287	93.392072	96.013543	93.392072	35.667172	30.000000	0.000000	93.827703	179.209650	64.672633
3.370340E+9	99.968297	93.508889	96.136563	93.508889	35.685779	30.000000	0.000000	93.827703	179.209650	64.672633
3.370340E+9	100.052122	93.598936	96.232025	93.598936	35.694481	30.000000	0.000000	93.766861	179.443289	64.779318
3.370340E+9	100.132174	93.665863	96.303591	93.665863	35.695484	30.000000	0.000000	93.718187	179.652336	64.789017
3.370340E+9	100.175335	93.737657	96.378894	93.737657	35.709615	30.000000	0.000000	93.925051	179.787601	64.982991
3.370340E+9	100.203704	93.793632	96.437425	93.793632	35.722240	30.000000	0.000000	93.925051	179.787601	64.982991
3.370340E+9	100.227100	93.852040	96.498287	93.852040	35.737307	30.000000	0.000000	94.119747	179.787601	65.138170
3.370340E+9	100.227100	93.915316	96.563347	93.915316	35.761401	30.000000	0.000000	94.314442	179.799898	65.147869
3.370340E+9	100.227100	94.002929	96.653430	94.002929	35.794763	30.000000	0.000000	94.667328	179.799898	65.409733
3.370340E+9	100.265388	94.085675	96.739833	94.085675	35.814495	30.000000	0.000000	94.764676	179.861382	65.526118
3.370340E+9	100.413328	94.183023	96.845047	94.183023	35.806013	30.000000	0.000000	94.801181	179.935163	65.584310
3.370340E+9	100.624183	94.280371	96.952447	94.280371	35.778080	30.000000	0.000000	94.801181	180.045835	65.681297
3.370340E+9	100.756016	94.380152	97.059625	94.380152	35.775315	30.000000	0.000000	94.764676	180.156506	65.710393
3.370340E+9	100.911437	94.489668	97.177640	94.489668	35.768888	30.000000	0.000000	94.813350	180.291772	65.700694
3.370340E+9	101.081572	94.583366	97.279906	94.583366	35.751848	30.000000	0.000000	94.862024	180.439334	65.739489
3.370340E+9	101.151954	94.679497	97.381221	94.679497	35.766447	30.000000	0.000000	94.886361	180.562302	65.729790
3.370340E+9	101.237023	94.758592	97.465529	94.758592	35.770035	30.000000	0.000000	94.910698	180.697567	65.778284
3.370340E+9	101.325697	94.831603	97.543709	94.831603	35.770175	30.000000	0.000000	95.044551	180.759052	65.875271
3.370340E+9	101.381142	94.879060	97.594451	94.879060	35.770925	30.000000	0.000000	95.141899	180.832833	65.943162
3.370340E+9	101.446452	94.948420	97.668069	94.948420	35.776860	30.000000	0.000000	95.458279	180.943504	66.098341
3.370340E+9	101.503032	95.043334	97.767672	95.043334	35.795097	30.000000	0.000000	95.750323	180.968098	66.224424
3.370340E+9	101.600425	95.168669	97.899996	95.168669	35.812096	30.000000	0.000000	96.054535	181.164847	66.234122
3.370340E+9	101.779252	95.323209	98.065214	95.323209	35.814719	30.000000	0.000000	96.310073	181.361597	66.214725
3.370340E+9	101.925995	95.504519	98.256871	95.504519	35.837204	30.000000	0.000000	96.626453	181.644424	66.030450
3.370340E+9	102.136938	95.694348	98.459557	95.694348	35.842731	30.000000	0.000000	96.760306	181.964142	66.127437
3.370340E+9	102.325653	95.880525	98.657732	95.880525	35.853597	30.000000	0.000000	96.748138	182.296157	66.011052
3.370340E+9	102.462538	96.059402	98.846598	96.059402	35.877724	30.000000	0.000000	96.699464	182.640469	65.875271
3.370340E+9	102.660035	96.216375	99.015071	96.216375	35.874579	30.000000	0.000000	96.614285	182.923296	65.817079
3.370340E+9	102.753847	96.366048	99.172399	96.366048	35.901006	30.000000	0.000000	96.638622	183.156936	65.797681
3.370340E+9	102.834230	96.486516	99.299209	96.486516	35.920688	30.000000	0.000000	96.662959	183.365983	65.836476
3.370340E+9	102.853956	96.591165	99.407604	96.591165	35.953457	30.000000	0.000000	96.796812	183.464357	65.914066
3.370340E+9	102.862745	96.684862	99.504344	96.684862	35.985573	30.000000	0.000000	96.991508	183.538139	66.146834
3.370340E+9	102.862745	96.780993	99.603278	96.780993	36.021353	30.000000	0.000000	97.271383	183.575029	66.331109
3.370340E+9	102.873683	96.874690	99.700095	96.874690	36.052784	30.000000	0.000000	97.563426	183.587326	66.592974
3.370340E+9	102.924462	96.980556	99.810847	96.980556	36.076187	30.000000	0.000000	97.818964	183.697998	66.903332
3.370340E+9	103.050387	97.103458	99.941799	97.103458	36.082196	30.000000	0.000000	97.977154	183.833263	67.165197
3.370340E+9	103.294526	97.225142	100.075703	97.225142	36.050363	30.000000	0.000000	97.916312	184.411215	67.417363
3.370340E+9	103.557435	97.344393	100.207785	97.344393	36.011555	30.000000	0.000000	97.806796	184.730933	67.407665
3.370340E+9	103.713064	97.461211	100.333568	97.461211	36.005590	30.000000	0.000000	97.806796	184.730933	67.407665
3.370340E+9	103.940331	97.562209	100.445622	97.562209	35.971042	30.000000	0.000000	97.672942	185.099838	67.320376
3.370340E+9	104.067344	97.631570	100.521548	97.631570	35.956442	30.000000	0.000000	97.490415	185.358072	67.291280
3.370340E+9	104.132630	97.665641	100.558950	97.665641	35.948339	30.000000	0.000000	97.332225	185.640900	67.242787
3.370340E+9	104.164744	97.681460	100.576380	97.681460	35.944003	30.000000	0.000000	97.429573	185.714681	67.203992
3.370340E+9	104.164744	97.685111	100.580139	97.685111	35.945346	30.000000	0.000000	97.599931	185.665493	67.271883
3.370340E+9	104.168312	97.693629	100.589036	97.693629	35.947352	30.000000	0.000000	97.904143	185.554822	67.397966
3.370340E+9	104.168312	97.716749	100.612842	97.716749	35.955859	30.000000	0.000000	98.208355	185.505634	67.562844
3.370340E+9	104.169266	97.761772	100.659233	97.761772	35.972123	30.000000	0.000000	98.366546	185.481041	67.688927
3.370340E+9	104.196858	97.844518	100.745414	97.844518	35.993828	30.000000	0.000000	98.634252	185.505634	67.756818
3.370340E+9	104.339053	97.939432	100.848211	97.939432	35.983657	30.000000	0.000000	98.755937	185.579415	67.824709
3.370340E+9	104.631642	98.052599	100.975176	98.052599	35.932401	30.000000	0.000000	98.804611	185.690087	67.834407
3.370340E+9	104.631642	98.180368	101.106754	98.180368	35.979224	30.000000	0.000000	98.768106	185.849946	67.921695
3.370340E+9	104.819448	98.321522	101.258829	98.321522	35.971234	30.000000	0.000000	98.743769	186.009805	67.853805
3.370340E+9	104.979594	98.448075	101.394892	98.448075	35.966568	30.000000	0.000000	98.695095	186.095883	67.941093
3.370340E+9	105.170953	98.566109	101.523311	98.566109	35.948743	30.000000	0.000000	98.780274	186.218852	68.008984
3.370340E+9	105.236217	98.657372	101.619651	98.657372	35.961230	30.000000	0.000000	98.816779	186.268039	68.096272
3.370340E+9	105.258571	98.735251	101.700669	98.735251	35.982488	30.000000	0.000000	98.987138	186.280336	68.261150
3.370340E+9	105.305028	98.809478	101.778793	98.809478	35.994713	30.000000	0.000000	99.108823	186.292633	68.484220
3.370340E+9	105.347061	98.878839	101.851747	98.878839	36.006558	30.000000	0.000000	99.327856	186.280336	68.639399
3.370340E+9	105.427581	98.951850	101.929845	98.951850	36.007419	30.000000	0.000000	99.486046	186.304930	68.794578
3.370340E+9	105.499205	99.038246	102.021416	99.038246	36.015958	30.000000	0.000000	99.668573	186.366414	69.017648
3.370340E+9	105.644991	99.144112	102.135715	99.144112	36.007808	30.000000	0.000000	99.826763	186.440195	69.114635
3.370340E+9	105.767570	99.270664	102.270500	99.270664	36.014509	30.000000	0.000000	100.009291	186.538570	69.260116
3.370340E+9	105.926653	99.422770	102.432937	99.422770	36.018679	30.000000	0.000000	100.216155	186.636945	69.395897
3.370340E+9	106.114489	99.591912	102.613981	99.591912	36.019645	30.000000	0.000000	100.471693	186.833694	69.415295
3.370340E+9	106.217433	99.785391	102.817053	99.785391	36.056515	30.000000	0.000000	100.751568	187.018147	69.541378
3.370340E+9	106.373162	99.991038	103.034588	99.991038	36.080654	30.000000	0.000000	101.043612	187.288678	69.628666
3.370340E+9	106.514334	100.212504	103.267918	100.212504	36.115004	30.000000	0.000000	101.323487	187.559209	69.871133
3.370340E+9	106.659350	100.435187	103.502663	100.435187	36.148363	30.000000	0.000000	101.554688	187.829739	69.997217
3.370340E+9	106.806113	100.665172	103.745017	100.665172	36.183588	30.000000	0.000000	101.785889	188.174051	70.278479
3.370340E+9	106.927991	100.901240	103.992757	100.901240	36.228875	30.000000	0.000000	102.029259	188.493769	70.423959
3.370340E+9	107.106883	101.142176	104.247617	101.142176	36.257189	30.000000	0.000000	102.236123	188.788894	70.666427
3.370340E+9	107.106883	101.379462	104.492188	101.379462	36.342251	30.000000	0.000000	102.382145	189.268471	70.850702
3.370340E+9	107.298256	101.608229	104.735008	101.608229	36.361745	30.000000	0.000000	102.503829	189.661971	71.034977
3.370340E+9	107.447568	101.829695	104.968782	101.829695	36.392139	30.000000	0.000000	102.686357	190.067767	71.170759
3.370340E+9	107.574442	102.035343	105.185445	102.035343	36.424046	30.000000	0.000000	102.808042	190.424376	71.442323
3.370340E+9	107.706093	102.216653	105.377212	102.216653	36.445552	30.000000	0.000000	102.856715	190.756391	71.694489
3.370340E+9	107.900367	102.391879	105.565035	102.391879	36.444170	30.000000	0.000000	103.075748	191.125297	71.907860
3.370340E+9	107.989316	102.579274	105.761529	102.579274	36.481588	30.000000	0.000000	103.428634	191.678655	72.402494
3.370340E+9	107.989316	102.763018	105.950973	102.763018	36.546935	30.000000	0.000000	103.623330	191.912296	72.654660
3.370340E+9	107.989316	102.944329	106.137909	102.944329	36.611417	30.000000	0.000000	103.842363	192.182827	72.829236
3.370340E+9	107.989316	103.126856	106.326098	103.126856	36.676331	30.000000	0.000000	104.061395	192.416467	73.110499
3.370340E+9	108.368293	103.314250	106.533425	103.314250	36.617396	30.000000	0.000000	104.256091	192.650107	73.304473
3.370340E+9	108.368293	103.513814	106.739206	103.513814	36.688126	30.000000	0.000000	104.499461	192.834560	73.498447
3.370340E+9	108.532414	103.715810	106.953631	103.715810	36.705159	30.000000	0.000000	104.706325	193.092794	73.673023
3.370340E+9	108.669178	103.923892	107.173328	103.923892	36.733258	30.000000	0.000000	104.888852	193.351028	73.963984
3.370340E+9	108.801820	104.152659	107.414224	104.152659	36.769868	30.000000	0.000000	105.144391	193.596966	74.138561
3.370340E+9	108.924531	104.375342	107.648491	104.375342	36.807470	30.000000	0.000000	105.302581	193.806012	74.274343
3.370340E+9	109.050729	104.580990	107.865338	104.580990	36.837741	30.000000	0.000000	105.485108	194.101137	74.516810
3.370340E+9	109.186867	104.780553	108.076300	104.780553	36.862386	30.000000	0.000000	105.618961	194.297887	74.633195
3.370340E+9	109.281520	104.974032	108.279439	104.974032	36.898664	30.000000	0.000000	105.777152	194.568418	74.875662
3.370340E+9	109.404234	105.157776	108.473609	105.157776	36.921976	30.000000	0.000000	105.898837	194.802058	75.059937
3.370340E+9	109.446298	105.339086	108.662229	105.339086	36.971466	30.000000	0.000000	106.069195	195.023402	75.176322
3.370340E+9	109.517314	105.511879	108.843167	105.511879	37.008154	30.000000	0.000000	106.227386	195.220152	75.457584
3.370340E+9	109.624491	105.684671	109.025485	105.684671	37.032551	30.000000	0.000000	106.434250	195.453792	75.690353
3.370340E+9	109.808301	105.859897	109.213242	105.859897	37.031770	30.000000	0.000000	106.641114	195.650542	75.971615
3.370340E+9	109.808301	106.030256	109.388997	106.030256	37.091364	30.000000	0.000000	106.847979	195.822698	76.155891
3.370340E+9	109.972563	106.204266	109.574783	106.204266	37.096510	30.000000	0.000000	107.042674	196.031745	76.408057
3.370340E+9	110.099289	106.385576	109.766688	106.385576	37.116790	30.000000	0.000000	107.298213	196.265385	76.650525
3.370340E+9	110.234583	106.570537	109.962702	106.570537	37.135294	30.000000	0.000000	107.468571	196.412948	76.883293
3.370340E+9	110.338267	106.759149	110.161289	106.759149	37.165692	30.000000	0.000000	107.663267	196.708072	77.086966
3.370340E+9	110.521628	106.953844	110.369223	106.953844	37.170906	30.000000	0.000000	107.845795	196.917119	77.290639
3.370340E+9	110.667375	107.147323	110.574479	107.147323	37.188348	30.000000	0.000000	108.003985	197.187650	77.339132
3.370340E+9	110.790117	107.342019	110.780124	107.342019	37.213920	30.000000	0.000000	108.174344	197.421291	77.727080
3.370340E+9	110.907176	107.535498	110.984311	107.535498	37.240877	30.000000	0.000000	108.369039	197.691822	77.950151
3.370340E+9	111.019511	107.726543	111.185818	107.726543	37.268481	30.000000	0.000000	108.551567	197.913166	78.144125
3.370340E+9	111.136559	107.917589	111.387521	107.917589	37.294339	30.000000	0.000000	108.758431	198.134509	78.338099
3.370340E+9	111.230623	108.104983	111.584582	108.104983	37.326716	30.000000	0.000000	108.916621	198.368150	78.590265
3.370340E+9	111.346854	108.283860	111.773721	108.283860	37.348409	30.000000	0.000000	109.086980	198.626384	78.823034
3.370340E+9	111.469163	108.461520	111.961854	108.461520	37.367463	30.000000	0.000000	109.245171	198.823134	79.046104
3.370340E+9	111.591900	108.644047	112.155042	108.644047	37.387919	30.000000	0.000000	109.488540	199.093665	79.249777
3.370340E+9	111.705070	108.831442	112.352897	108.831442	37.413229	30.000000	0.000000	109.719742	199.290415	79.482546
3.370340E+9	111.808695	109.021270	112.552907	109.021270	37.442559	30.000000	0.000000	109.902269	199.524056	79.744411
3.370340E+9	111.911921	109.213533	112.755427	109.213533	37.472746	30.000000	0.000000	110.096965	199.696212	80.006276
3.370340E+9	111.911921	109.411879	112.960206	109.411879	37.540802	30.000000	0.000000	110.352503	199.905259	80.151756
3.370340E+9	112.034275	109.613876	113.173547	109.613876	37.567480	30.000000	0.000000	110.571536	200.114305	80.345731
3.370340E+9	112.279392	109.818307	113.394231	109.818307	37.552020	30.000000	0.000000	110.802737	200.311055	80.568801
3.370340E+9	112.425049	110.025171	113.613553	110.025171	37.571863	30.000000	0.000000	110.985265	200.581587	80.772474
3.370340E+9	112.425049	110.236903	113.832191	110.236903	37.644166	30.000000	0.000000	111.204297	200.815227	80.908255
3.370340E+9	112.598691	110.454719	114.063956	110.454719	37.657661	30.000000	0.000000	111.423330	201.011977	81.102230
3.370340E+9	112.734052	110.667667	114.289207	110.667667	37.682726	30.000000	0.000000	111.618026	201.257915	81.305902
3.370340E+9	112.866742	110.878182	114.511858	110.878182	37.707734	30.000000	0.000000	111.824891	201.430071	81.499876
3.370340E+9	113.002101	111.087480	114.733376	111.087480	37.731227	30.000000	0.000000	111.995249	201.737493	81.703549
3.370340E+9	113.189458	111.321115	114.982112	111.321115	37.744464	30.000000	0.000000	112.433315	202.094102	81.994510
3.370340E+9	113.189458	111.529196	115.197037	111.529196	37.815016	30.000000	0.000000	112.433315	202.094102	81.994510
3.370340E+9	113.409625	111.731193	115.414440	111.731193	37.805560	30.000000	0.000000	112.591505	202.499899	82.566734
3.370340E+9	113.490027	111.912504	115.604931	111.912504	37.838408	30.000000	0.000000	112.615842	202.672055	82.838298
3.370340E+9	113.612745	112.067044	115.769466	112.067044	37.847109	30.000000	0.000000	112.530663	202.844212	83.032272
3.370340E+9	113.725252	112.187512	115.898407	112.187512	37.847835	30.000000	0.000000	112.408978	202.917993	83.381426
3.370340E+9	113.725252	112.269040	115.982632	112.269040	37.875340	30.000000	0.000000	112.238619	203.053259	83.740278
3.370340E+9	113.815634	112.307980	116.026471	112.307980	37.856350	30.000000	0.000000	112.007418	203.114743	84.128226
3.370340E+9	113.890003	112.297028	116.018128	112.297028	37.826231	30.000000	0.000000	111.715374	203.090149	84.545270
3.370340E+9	113.928403	112.236186	115.956803	112.236186	37.792100	30.000000	0.000000	111.386825	203.077852	84.933219
3.370340E+9	113.998895	112.095031	115.813779	112.095031	37.719573	30.000000	0.000000	111.021770	203.016368	85.418154
3.370340E+9	114.041164	111.918588	115.633165	111.918588	37.645236	30.000000	0.000000	110.668884	202.905696	85.903090
3.370340E+9	114.153695	111.686170	115.397502	111.686170	37.527312	30.000000	0.000000	110.267324	202.856509	86.455916
3.370340E+9	114.153695	111.414812	115.117127	111.414812	37.436134	30.000000	0.000000	109.902269	202.672055	87.018441
3.370340E+9	114.182861	111.103299	114.796414	111.103299	37.321217	30.000000	0.000000	109.415530	202.499899	87.445185
3.370340E+9	114.244110	110.758931	114.443010	110.758931	37.184090	30.000000	0.000000	108.965295	202.401524	88.017409
3.370340E+9	114.389635	110.392659	114.070265	110.392659	37.010345	30.000000	0.000000	108.575904	202.266259	88.570235
3.370340E+9	114.389635	109.999617	113.664129	109.999617	36.878574	30.000000	0.000000	108.076996	202.167884	88.948485
3.370340E+9	114.480060	109.573720	113.227564	109.573720	36.704476	30.000000	0.000000	107.456403	202.044915	89.530408
3.370340E+9	114.573390	109.128353	112.770963	109.128353	36.523112	30.000000	0.000000	106.933158	201.885055	89.898959
3.370340E+9	114.728652	108.681770	112.315465	108.681770	36.320353	30.000000	0.000000	106.555935	201.737493	90.442087
3.370340E+9	114.728652	108.255873	111.875328	108.255873	36.178023	30.000000	0.000000	106.409913	201.676008	90.888227
3.370340E+9	114.799193	107.861614	111.470589	107.861614	36.022241	30.000000	0.000000	106.324734	201.565337	91.402259
3.370340E+9	114.870409	107.509944	111.109870	107.509944	35.880623	30.000000	0.000000	106.385576	201.503852	91.722317
3.370340E+9	114.977235	107.213033	110.807082	107.213033	35.745380	30.000000	0.000000	106.446419	201.466962	92.197554
3.370340E+9	115.067034	106.985482	110.575311	106.985482	35.639197	30.000000	0.000000	106.689788	201.553040	92.585502
3.370340E+9	115.067034	106.821208	110.405524	106.821208	35.584473	30.000000	0.000000	106.933158	201.651415	92.827970
3.370340E+9	115.067034	106.732378	110.313714	106.732378	35.554882	30.000000	0.000000	107.188696	201.934243	92.983150
3.370340E+9	115.067034	106.723860	110.304910	106.723860	35.552045	30.000000	0.000000	107.371224	202.167884	93.148028
3.370340E+9	115.241546	106.788353	110.378177	106.788353	35.514739	30.000000	0.000000	107.578088	202.487602	93.148028
3.370340E+9	116.080406	106.911255	110.536980	106.911255	35.273030	30.000000	0.000000	107.784952	202.807321	93.322605
3.370340E+9	116.225687	107.076746	110.713588	107.076746	35.278671	30.000000	0.000000	108.064827	203.200821	93.487483
3.370340E+9	116.348259	107.306731	110.956036	107.306731	35.313062	30.000000	0.000000	108.624578	203.791071	93.846336
3.370340E+9	116.428842	107.530631	111.190615	107.530631	35.359488	30.000000	0.000000	108.624578	203.791071	93.846336
3.370340E+9	116.522175	107.775217	111.447083	107.775217	35.408283	30.000000	0.000000	108.892284	203.987821	94.146996
3.370340E+9	116.583467	108.024671	111.707376	108.024671	35.469420	30.000000	0.000000	109.184328	204.196868	94.350669
3.370340E+9	116.634809	108.332534	112.027700	108.332534	35.553019	30.000000	0.000000	110.011785	204.553478	94.884098
3.370340E+9	116.760770	108.653782	112.364742	108.653782	35.615430	30.000000	0.000000	110.401177	204.688744	95.175060
3.370340E+9	116.760770	108.998150	112.720872	108.998150	35.728309	30.000000	0.000000	110.814906	204.824009	95.495117
3.370340E+9	116.883353	109.363205	113.103131	109.363205	35.805845	30.000000	0.000000	111.228634	204.996166	95.805476
3.370340E+9	117.005940	109.753814	113.511848	109.753814	35.891466	30.000000	0.000000	111.691037	205.205213	96.038246
3.370340E+9	117.147851	110.155374	113.932677	110.155374	35.973693	30.000000	0.000000	112.080429	205.377369	96.387400
3.370340E+9	117.270450	110.527729	114.322584	110.527729	36.052753	30.000000	0.000000	112.348136	205.574119	96.658964
3.370340E+9	117.486940	110.932940	114.750180	110.932940	36.109563	30.000000	0.000000	112.676685	205.807760	96.872335
3.370340E+9	117.590205	111.350319	115.185977	111.350319	36.209353	30.000000	0.000000	113.066077	206.053697	97.134201
3.370340E+9	117.716677	111.775000	115.630270	111.775000	36.303119	30.000000	0.000000	113.431131	206.262744	97.366970
3.370340E+9	117.819976	112.143705	116.015776	112.143705	36.386550	30.000000	0.000000	113.698838	206.410307	97.745220
3.370340E+9	117.936496	112.491724	116.380430	112.491724	36.458385	30.000000	0.000000	113.881366	206.557870	98.055579
3.370340E+9	118.011056	112.808105	116.710711	112.808105	36.534566	30.000000	0.000000	113.978714	206.693135	98.414432
3.370340E+9	118.046925	113.067294	116.980295	113.067294	36.605801	30.000000	0.000000	113.820523	206.779213	98.831477
3.370340E+9	118.124809	113.255905	117.178541	113.255905	36.639229	30.000000	0.000000	113.577153	206.865292	99.297016
3.370340E+9	118.173937	113.378807	117.307661	113.378807	36.661541	30.000000	0.000000	113.309447	206.791510	99.830445
3.370340E+9	118.206459	113.442083	117.374429	113.442083	36.670446	30.000000	0.000000	112.980897	206.766917	100.344478
3.370340E+9	118.238557	113.451818	117.385784	113.451818	36.662188	30.000000	0.000000	112.774033	206.668542	100.800318
3.370340E+9	118.271167	113.378807	117.311543	113.378807	36.627016	30.000000	0.000000	112.335967	206.520979	101.265856
3.370340E+9	118.303682	113.223050	117.151680	113.223050	36.565171	30.000000	0.000000	111.873564	206.385713	101.760491
3.370340E+9	118.355135	112.976030	116.898134	112.976030	36.467195	30.000000	0.000000	111.228634	206.188963	102.216331
3.370340E+9	118.406993	112.640179	116.552680	112.640179	36.340499	30.000000	0.000000	110.522862	205.967619	102.516992
3.370340E+9	118.480930	112.220367	116.121205	112.220367	36.179085	30.000000	0.000000	109.780584	205.709385	103.089216
3.370340E+9	118.500279	111.756747	115.642231	111.756747	36.022849	30.000000	0.000000	109.184328	205.401963	103.525659
3.370340E+9	118.500279	111.259056	115.127237	111.259056	35.862427	30.000000	0.000000	108.600241	205.057650	104.068788
3.370340E+9	118.519630	110.740678	114.591590	110.740678	35.688630	30.000000	0.000000	108.125670	204.701040	104.544025
3.370340E+9	118.542207	110.208915	114.042211	110.208915	35.509471	30.000000	0.000000	107.663267	204.356728	105.096853
3.370340E+9	118.584132	109.651598	113.467127	109.651598	35.315516	30.000000	0.000000	107.200865	204.024712	105.649680
3.370340E+9	118.584132	109.080896	112.876566	109.080896	35.131710	30.000000	0.000000	106.628946	203.692696	106.173412
3.370340E+9	118.735959	108.477339	112.257801	108.477339	34.885794	30.000000	0.000000	105.837994	203.163931	107.162682
3.370340E+9	118.894318	107.926107	111.693367	107.926107	34.655068	30.000000	0.000000	105.716309	202.942587	107.657317
3.370340E+9	118.978756	107.440584	111.194086	107.440584	34.470802	30.000000	0.000000	105.667635	202.770430	108.190747
3.370340E+9	119.092000	107.039024	110.782757	107.039024	34.304076	30.000000	0.000000	105.764983	202.647462	108.636889
3.370340E+9	119.227786	106.712908	110.450326	106.712908	34.154280	30.000000	0.000000	105.923174	202.622868	108.976345
3.370340E+9	119.396179	106.464671	110.199691	106.464671	34.018826	30.000000	0.000000	106.117869	202.721243	109.286704
3.370340E+9	119.583742	106.289445	110.025316	106.289445	33.900585	30.000000	0.000000	106.373408	202.831915	109.587365
3.370340E+9	119.780757	106.188447	109.928109	106.188447	33.803076	30.000000	0.000000	106.653283	203.053259	109.858929
3.370340E+9	119.913394	106.151941	109.895256	106.151941	33.747527	30.000000	0.000000	106.835810	203.311493	110.082000
3.370340E+9	120.129787	106.209133	109.962523	106.209133	33.694034	30.000000	0.000000	107.200865	203.606618	110.227481
3.370340E+9	120.255381	106.377058	110.141065	106.377058	33.705658	30.000000	0.000000	107.517245	203.877150	110.450552
3.370340E+9	120.400866	106.592440	110.369502	106.592440	33.725574	30.000000	0.000000	107.870131	204.246056	110.615431
3.370340E+9	120.517193	106.850412	110.640968	106.850412	33.768472	30.000000	0.000000	108.247355	204.504290	110.877296
3.370340E+9	120.517193	107.132721	110.933292	107.132721	33.857691	30.000000	0.000000	108.588072	204.774822	110.954886
3.370340E+9	120.681534	107.435717	111.253219	107.435717	33.898460	30.000000	0.000000	108.953127	205.033056	111.304041
3.370340E+9	120.762180	107.761832	111.593964	107.761832	33.974299	30.000000	0.000000	109.379024	205.229806	111.595003
3.370340E+9	120.804020	108.109851	111.955942	108.109851	34.069939	30.000000	0.000000	109.853595	205.401963	111.905362
3.370340E+9	120.875081	108.479773	112.341722	108.479773	34.162522	30.000000	0.000000	110.352503	205.537228	112.264215
3.370340E+9	120.968277	108.881333	112.761128	108.881333	34.257403	30.000000	0.000000	110.851411	205.697088	112.593972
3.370340E+9	121.081234	109.292628	113.191397	109.292628	34.348398	30.000000	0.000000	111.313814	205.820057	112.952826
3.370340E+9	121.204035	109.725826	113.644760	109.725826	34.442632	30.000000	0.000000	111.849227	206.016807	113.204993
3.370340E+9	121.355813	110.176060	114.116921	110.176060	34.531963	30.000000	0.000000	112.372473	206.225854	113.544449
3.370340E+9	121.497709	110.633595	114.596307	110.633595	34.626570	30.000000	0.000000	112.822707	206.459495	113.913001
3.370340E+9	121.649841	111.097215	115.082437	111.097215	34.719157	30.000000	0.000000	113.224267	206.656245	114.194264
3.370340E+9	121.752884	111.564485	115.570484	111.564485	34.829474	30.000000	0.000000	113.625827	206.902182	114.494925
3.370340E+9	121.898090	112.030538	116.058951	112.030538	34.924454	30.000000	0.000000	114.039556	207.123526	114.659803
3.370340E+9	121.898090	112.477122	116.521593	112.477122	35.063673	30.000000	0.000000	114.319431	207.369464	114.902272
3.370340E+9	122.020545	112.879899	116.943678	112.879899	35.146322	30.000000	0.000000	114.380274	207.615402	115.105945
3.370340E+9	122.146301	113.208448	117.289023	113.208448	35.204435	30.000000	0.000000	114.136904	207.922824	115.164138
3.370340E+9	122.198053	113.490757	117.583556	113.490757	35.274000	30.000000	0.000000	114.136904	207.922824	115.164138
3.370340E+9	122.198053	113.681802	117.781491	113.681802	35.333379	30.000000	0.000000	113.759681	207.935121	114.950765
3.370340E+9	122.198053	113.782801	117.886132	113.782801	35.364770	30.000000	0.000000	113.382457	207.885933	114.785887
3.370340E+9	122.252716	113.769416	117.874433	113.769416	35.341315	30.000000	0.000000	112.688853	207.504730	113.825712
3.370340E+9	122.252716	113.678152	117.779877	113.678152	35.312965	30.000000	0.000000	112.311630	207.185011	113.369871
3.370340E+9	122.252716	113.496841	117.592024	113.496841	35.256643	30.000000	0.000000	111.812722	206.791510	112.700658
3.370340E+9	122.252716	113.226701	117.312136	113.226701	35.172726	30.000000	0.000000	111.338151	206.361119	112.070241
3.370340E+9	122.220091	112.867730	116.938929	112.867730	35.072640	30.000000	0.000000	110.729726	205.906135	111.342836
3.370340E+9	122.220091	112.456435	116.512799	112.456435	34.944834	30.000000	0.000000	110.267324	205.365072	110.644527
3.370340E+9	122.184559	112.013502	116.052500	112.013502	34.819545	30.000000	0.000000	109.707573	204.774822	109.985013
3.370340E+9	122.171374	111.513377	115.533829	111.513377	34.668643	30.000000	0.000000	109.135654	204.172275	109.461281
3.370340E+9	122.109748	110.997433	114.996897	110.997433	34.529467	30.000000	0.000000	108.600241	203.557431	108.956947
3.370340E+9	122.109748	110.464453	114.444713	110.464453	34.363665	30.000000	0.000000	108.052659	202.893399	108.462312
3.370340E+9	122.090309	109.950943	113.911954	109.950943	34.210554	30.000000	0.000000	107.553751	202.253962	107.938580
3.370340E+9	122.067957	109.427698	113.369005	109.427698	34.055341	30.000000	0.000000	107.079180	201.553040	107.376054
3.370340E+9	122.058397	108.915405	112.837897	108.915405	33.899140	30.000000	0.000000	106.689788	200.876712	106.803829
3.370340E+9	122.058397	108.421364	112.326064	108.421364	33.745373	30.000000	0.000000	106.397745	200.200384	106.231604
3.370340E+9	122.061706	107.972347	111.861000	107.972347	33.604511	30.000000	0.000000	106.239554	199.524056	105.601187
3.370340E+9	122.061706	107.575654	111.450021	107.575654	33.481047	30.000000	0.000000	106.300397	198.773946	105.048359
3.370340E+9	122.071265	107.242238	111.104954	107.242238	33.374095	30.000000	0.000000	106.373408	198.048431	104.670109
3.370340E+9	122.074182	106.996434	110.850406	106.996434	33.296632	30.000000	0.000000	106.677620	197.372103	104.534327
3.370340E+9	122.083740	106.845545	110.694438	106.845545	33.246506	30.000000	0.000000	107.091348	196.708072	104.495532
3.370340E+9	122.083740	106.800521	110.647793	106.800521	33.232497	30.000000	0.000000	107.602425	196.117823	104.582820
3.370340E+9	122.094014	106.863798	110.713731	106.863798	33.248779	30.000000	0.000000	108.186512	195.539870	104.825289
3.370340E+9	122.148277	107.034156	110.892254	107.034156	33.283759	30.000000	0.000000	108.782768	195.084886	105.155045
3.370340E+9	122.335971	107.304297	111.179156	107.304297	33.305279	30.000000	0.000000	109.391193	194.789761	105.475103
3.370340E+9	122.646512	107.659617	111.558961	107.659617	33.311902	30.000000	0.000000	109.950943	194.568418	105.882450
3.370340E+9	122.875935	108.089164	112.012706	108.089164	33.367972	30.000000	0.000000	110.535031	194.494637	106.212207
3.370340E+9	123.027645	108.564952	112.511500	108.564952	33.463839	30.000000	0.000000	111.058276	194.482340	106.619553
3.370340E+9	123.270340	109.072378	113.046585	109.072378	33.538296	30.000000	0.000000	111.447667	194.654496	106.978406
3.370340E+9	123.450612	109.596840	113.597029	109.596840	33.638427	30.000000	0.000000	111.922238	194.838949	107.356657
3.370340E+9	123.570197	110.166325	114.191882	110.166325	33.772468	30.000000	0.000000	112.786201	195.330823	108.016170
3.370340E+9	123.698894	110.684703	114.734154	110.684703	33.887331	30.000000	0.000000	112.786201	195.330823	108.016170
3.370340E+9	123.796032	111.189695	115.261375	111.189695	34.008550	30.000000	0.000000	113.236436	195.601355	108.375023
3.370340E+9	123.885795	111.682519	115.775729	111.682519	34.128300	30.000000	0.000000	113.711007	195.847292	108.704780
3.370340E+9	123.946749	112.175343	116.288991	112.175343	34.257769	30.000000	0.000000	114.319431	196.179307	109.791038
3.370340E+9	123.946749	112.625577	116.755736	112.625577	34.395268	30.000000	0.000000	114.453285	196.240792	110.392360
3.370340E+9	123.994800	113.014969	117.161294	113.014969	34.497407	30.000000	0.000000	114.428948	196.289979	111.013079
3.370340E+9	124.075781	113.344735	117.506347	113.344735	34.569710	30.000000	0.000000	114.355937	196.265385	111.769580
3.370340E+9	124.097998	113.620960	117.793590	113.620960	34.646160	30.000000	0.000000	114.209915	196.191604	112.458190
3.370340E+9	124.120762	113.814439	117.995074	113.814439	34.697155	30.000000	0.000000	113.857029	196.093229	113.243788
3.370340E+9	124.143528	113.883799	118.067883	113.883799	34.710292	30.000000	0.000000	113.479805	195.933370	114.097277
3.370340E+9	124.166296	113.899618	118.085183	113.899618	34.707103	30.000000	0.000000	112.944392	195.773511	114.844079
3.370340E+9	124.221133	113.814439	117.999041	113.814439	34.661873	30.000000	0.000000	112.384641	195.564464	115.736363
3.370340E+9	124.262825	113.618526	117.797569	113.618526	34.587581	30.000000	0.000000	111.751880	195.330823	116.580154
3.370340E+9	124.334419	113.289977	117.459751	113.289977	34.462523	30.000000	0.000000	111.033939	195.072589	117.501534
3.370340E+9	124.385168	112.865297	117.021428	112.865297	34.315654	30.000000	0.000000	110.206481	194.863543	118.384120
3.370340E+9	124.421436	112.359087	116.497992	112.359087	34.149167	30.000000	0.000000	109.366856	194.617605	119.286103
3.370340E+9	124.450202	111.764048	115.882149	111.764048	33.958394	30.000000	0.000000	108.405545	194.310184	119.916521
3.370340E+9	124.489184	111.087480	115.182155	111.087480	33.739461	30.000000	0.000000	107.444234	194.064246	120.498446
3.370340E+9	124.508097	110.337901	114.405670	110.337901	33.505359	30.000000	0.000000	106.361239	193.769122	120.857299
3.370340E+9	124.537812	109.531130	113.570286	109.531130	33.250331	30.000000	0.000000	105.412097	193.437106	121.099768
3.370340E+9	124.540504	108.686637	112.694752	108.686637	32.993065	30.000000	0.000000	104.499461	193.080497	121.012479
3.370340E+9	124.540504	107.810506	111.786311	107.810506	32.727106	30.000000	0.000000	103.623330	192.650107	120.886396
3.370340E+9	124.540504	106.922207	110.865253	106.922207	32.457452	30.000000	0.000000	102.868884	192.195124	120.682722
3.370340E+9	124.563272	106.043642	109.955127	106.043642	32.183304	30.000000	0.000000	102.248291	191.715546	120.517843
3.370340E+9	124.563272	105.202799	109.083269	105.202799	31.928115	30.000000	0.000000	101.798057	191.285156	120.275375
3.370340E+9	124.563272	104.420366	108.271975	104.420366	31.690654	30.000000	0.000000	101.542519	190.756391	120.052303
3.370340E+9	124.572914	103.727979	107.554396	103.727979	31.477434	30.000000	0.000000	101.481677	190.252220	119.800136
3.370340E+9	124.572914	103.141458	106.946239	103.141458	31.299448	30.000000	0.000000	101.579025	189.735752	119.421885
3.370340E+9	124.592408	102.688790	106.477567	102.688790	31.155904	30.000000	0.000000	101.834563	189.256174	118.878755
3.370340E+9	124.604739	102.384578	106.162569	102.384578	31.059711	30.000000	0.000000	102.369976	188.702816	118.277433
3.370340E+9	124.666499	102.228822	106.003255	102.228822	30.992982	30.000000	0.000000	102.941895	188.210942	117.773099
3.370340E+9	124.711450	102.295748	106.074247	102.295748	30.999088	30.000000	0.000000	104.292597	187.214897	117.103886
3.370340E+9	124.785539	102.514781	106.304004	102.514781	31.042037	30.000000	0.000000	105.059211	186.821397	116.842020
3.370340E+9	124.849980	102.795873	106.597783	102.795873	31.106726	30.000000	0.000000	105.059211	186.821397	116.842020
3.370340E+9	124.911946	103.201084	107.020197	103.201084	31.209628	30.000000	0.000000	105.850163	186.452492	116.541359
3.370340E+9	124.970438	103.717027	107.557336	103.717027	31.346955	30.000000	0.000000	106.701957	186.071289	116.124313
3.370340E+9	125.128650	104.388728	108.259630	104.388728	31.499064	30.000000	0.000000	108.198681	185.751571	115.164138
3.370340E+9	125.245041	105.134656	109.037457	105.134656	31.686444	30.000000	0.000000	109.038306	185.628603	114.504624
3.370340E+9	125.396507	105.934125	109.872161	105.934125	31.877974	30.000000	0.000000	109.829258	185.530228	114.029385
3.370340E+9	125.567481	106.754281	110.729124	106.754281	32.068579	30.000000	0.000000	110.571536	185.456447	113.398967
3.370340E+9	125.690258	107.598774	111.609632	107.598774	32.281601	30.000000	0.000000	111.386825	185.333478	112.739453
3.370340E+9	125.741554	108.394594	112.437039	108.394594	32.503251	30.000000	0.000000	112.250788	185.185916	111.934458
3.370340E+9	125.764329	109.205015	113.278545	109.205015	32.738611	30.000000	0.000000	113.163425	185.062948	111.158560
3.370340E+9	125.786427	110.111567	114.219755	110.111567	33.002900	30.000000	0.000000	114.124736	184.853901	110.227481
3.370340E+9	125.799367	111.035156	115.178299	111.035156	33.275299	30.000000	0.000000	115.086046	184.669449	109.344897
3.370340E+9	125.809888	111.957527	116.135495	111.957527	33.548094	30.000000	0.000000	115.925673	184.460402	108.365325
3.370340E+9	125.812469	112.798370	117.007817	112.798370	33.799157	30.000000	0.000000	116.607108	184.177575	107.385753
3.370340E+9	125.831985	113.605141	117.845462	113.605141	34.034079	30.000000	0.000000	117.106017	183.845560	106.338290
3.370340E+9	125.841664	114.376624	118.646123	114.376624	34.261796	30.000000	0.000000	117.544082	183.501248	105.339321
3.370340E+9	125.854767	115.100649	119.397696	115.100649	34.474040	30.000000	0.000000	117.811789	183.144639	104.136679
3.370340E+9	125.854767	115.762615	120.084376	115.762615	34.672307	30.000000	0.000000	118.006485	182.751140	102.982531
3.370340E+9	125.854767	116.347919	120.691531	116.347919	34.847612	30.000000	0.000000	118.103833	182.283860	101.876876
3.370340E+9	125.854767	116.852912	121.215377	116.852912	34.998864	30.000000	0.000000	118.213350	181.816580	100.907004
3.370340E+9	125.854767	117.262990	121.640764	117.262990	35.121687	30.000000	0.000000	118.225518	181.324706	99.966227
3.370340E+9	125.854767	117.570853	121.960121	117.570853	35.213896	30.000000	0.000000	118.164676	180.808239	99.248522
3.370340E+9	125.831985	117.791103	122.187665	117.791103	35.288119	30.000000	0.000000	118.128170	180.304068	98.656900
3.370340E+9	125.831985	117.926173	122.327777	117.926173	35.328583	30.000000	0.000000	117.957811	179.664633	98.307746
3.370340E+9	125.831985	117.994317	122.398464	117.994317	35.348998	30.000000	0.000000	117.787452	179.148165	98.210759
3.370340E+9	125.831985	117.995534	122.399726	117.995534	35.349363	30.000000	0.000000	117.556251	178.594807	98.230156
3.370340E+9	125.854767	117.940775	122.343853	117.940775	35.324692	30.000000	0.000000	117.264207	178.029153	98.385336
3.370340E+9	125.886540	117.821524	122.221445	117.821524	35.277459	30.000000	0.000000	116.813973	177.500389	98.899368
3.370340E+9	125.932111	117.632913	122.027643	117.632913	35.204497	30.000000	0.000000	116.217716	176.996218	99.500689
3.370340E+9	125.932111	117.357905	121.742361	117.357905	35.122194	30.000000	0.000000	115.463270	176.528939	100.072913
3.370340E+9	126.016017	116.998934	121.373374	116.998934	34.984572	30.000000	0.000000	114.635812	176.061659	100.751824
3.370340E+9	126.129267	116.554784	120.917180	116.554784	34.811179	30.000000	0.000000	113.723175	175.655863	101.576215
3.370340E+9	126.278280	115.895252	120.238931	115.895252	34.561114	30.000000	0.000000	111.532847	174.868866	103.331685
3.370340E+9	126.316598	115.133504	119.450158	115.133504	34.320396	30.000000	0.000000	110.340335	174.450773	104.291859
3.370340E+9	126.345815	114.265890	118.551169	114.265890	34.051508	30.000000	0.000000	109.111317	174.106462	105.290827
3.370340E+9	126.375166	113.296062	117.546117	113.296062	33.752279	30.000000	0.000000	107.857963	173.688370	106.367386
3.370340E+9	126.394690	112.221584	116.432090	112.221584	33.425447	30.000000	0.000000	106.519429	173.282574	107.405150
3.370340E+9	126.394690	111.057059	115.223873	111.057059	33.078591	30.000000	0.000000	105.168727	172.815295	108.520504
3.370340E+9	126.404517	109.812223	113.932703	109.812223	32.704499	30.000000	0.000000	103.769352	172.470983	109.606762
3.370340E+9	126.404517	108.511411	112.583082	108.511411	32.317088	30.000000	0.000000	102.455156	172.052891	110.683322
3.370340E+9	126.426569	107.159492	111.181251	107.159492	31.907197	30.000000	0.000000	101.116622	171.647096	111.585304
3.370340E+9	126.426569	105.764984	109.734405	105.764984	31.491976	30.000000	0.000000	99.778089	171.204410	112.768550
3.370340E+9	126.446828	104.450787	108.371617	104.450787	31.094168	30.000000	0.000000	98.390883	170.786318	113.893603
3.370340E+9	126.501366	103.145109	107.018870	103.145109	30.688198	30.000000	0.000000	97.283551	170.368225	115.018657
3.370340E+9	126.562462	101.858900	105.686505	101.858900	30.286405	30.000000	0.000000	96.249230	169.962430	116.066120
3.370340E+9	126.613732	100.607980	104.390359	100.607980	29.898620	30.000000	0.000000	95.348763	169.568932	117.191174
3.370340E+9	126.685280	99.421553	103.161784	99.421553	29.524196	30.000000	0.000000	94.655160	169.175433	118.258036
3.370340E+9	126.765899	98.315438	102.016792	98.315438	29.171391	30.000000	0.000000	94.107578	168.855716	119.315199
3.370340E+9	126.876526	97.310322	100.977550	97.310322	28.840119	30.000000	0.000000	93.718187	168.609779	120.236580
3.370340E+9	127.028050	96.415939	100.054501	96.415939	28.530221	30.000000	0.000000	93.511323	168.351546	121.109467
3.370340E+9	127.189366	95.648108	99.263014	95.648108	28.255687	30.000000	0.000000	93.438312	168.277765	121.662295
3.370340E+9	127.329386	95.020214	98.615977	95.020214	28.029404	30.000000	0.000000	93.499154	168.203984	122.011450
3.370340E+9	127.500329	94.548077	98.131543	94.548077	27.840592	30.000000	0.000000	93.669513	168.191687	121.962956
3.370340E+9	127.500329	94.209793	97.780438	94.209793	27.740981	30.000000	0.000000	93.900714	168.240874	121.924161
3.370340E+9	127.740549	94.007797	97.578563	94.007797	27.612317	30.000000	0.000000	94.229263	168.253171	121.788379
3.370340E+9	127.769076	93.991978	97.563067	93.991978	27.599459	30.000000	0.000000	95.190573	168.326952	121.225852
3.370340E+9	127.798369	94.097843	97.673904	94.097843	27.622103	30.000000	0.000000	95.713817	168.290062	120.905793
3.370340E+9	127.798369	94.326611	97.911365	94.326611	27.689257	30.000000	0.000000	96.395252	168.216281	120.430555
3.370340E+9	127.798369	94.670979	98.268820	94.670979	27.790345	30.000000	0.000000	97.161866	168.019532	119.829232
3.370340E+9	127.821153	95.117562	98.733121	95.117562	27.914802	30.000000	0.000000	97.977154	167.908860	119.305500
3.370340E+9	127.821153	95.659059	99.295202	95.659059	28.073719	30.000000	0.000000	98.853285	167.736705	118.772069
3.370340E+9	127.843099	96.283302	99.943900	96.283302	28.250449	30.000000	0.000000	99.741584	167.527659	118.267735
3.370340E+9	127.865820	96.978122	100.665895	96.978122	28.447569	30.000000	0.000000	100.617715	167.269425	118.122254
3.370340E+9	127.908160	97.739869	101.458034	97.739869	28.658350	30.000000	0.000000	101.518182	167.084973	118.034965
3.370340E+9	127.949651	98.561242	102.312060	98.561242	28.886665	30.000000	0.000000	102.442987	166.863630	118.093157
3.370340E+9	128.105119	99.375313	103.162427	99.375313	29.077969	30.000000	0.000000	103.331286	166.703771	118.151350
3.370340E+9	128.208495	100.218589	104.041404	100.218589	29.293018	30.000000	0.000000	104.146575	166.580803	118.432613
3.370340E+9	128.418556	101.076467	104.939306	101.076467	29.478826	30.000000	0.000000	104.974032	166.543913	118.607191
3.370340E+9	128.558696	101.934345	105.834880	101.934345	29.685349	30.000000	0.000000	105.740646	166.629990	118.481107
3.370340E+9	128.800396	102.788572	106.730331	102.788572	29.858192	30.000000	0.000000	106.519429	166.740662	118.325927
3.370340E+9	128.950344	103.628198	107.607491	103.628198	30.054622	30.000000	0.000000	107.249539	166.900521	117.976772
3.370340E+9	129.091892	104.449570	108.465480	104.449570	30.247693	30.000000	0.000000	107.955311	167.072676	117.588823
3.370340E+9	129.192010	105.256341	109.306886	105.256341	30.449156	30.000000	0.000000	108.685420	167.207941	117.220271
3.370340E+9	129.232094	106.058244	110.141107	106.058244	30.668159	30.000000	0.000000	109.537214	167.306316	116.725635
3.370340E+9	129.241878	106.852846	110.966658	106.852846	30.894738	30.000000	0.000000	110.389009	167.404690	116.240698
3.370340E+9	129.261451	107.649882	111.795102	107.649882	31.118757	30.000000	0.000000	111.301645	167.453878	115.658773
3.370340E+9	129.261451	108.456653	112.632939	108.456653	31.351974	30.000000	0.000000	112.214282	167.380097	115.076849
3.370340E+9	129.261451	109.278026	113.485940	109.278026	31.589411	30.000000	0.000000	113.187762	167.257128	114.417335
3.370340E+9	129.263716	110.121302	114.361773	110.121302	31.832419	30.000000	0.000000	114.173409	167.171051	113.767519
3.370340E+9	129.276714	110.999867	115.274665	110.999867	32.081980	30.000000	0.000000	115.305079	166.998895	113.001319
3.370340E+9	129.298549	111.912504	116.223287	111.912504	32.338299	30.000000	0.000000	116.375907	166.789849	112.138132
3.370340E+9	129.331120	112.848261	117.196350	112.848261	32.597480	30.000000	0.000000	117.312881	166.531616	111.216752
3.370340E+9	129.353910	113.779151	118.163997	113.779151	32.858466	30.000000	0.000000	117.994317	166.297976	110.275975
3.370340E+9	129.396272	114.728293	119.151384	114.728293	33.117741	30.000000	0.000000	119.028639	165.683135	108.229542
3.370340E+9	129.427883	115.629978	120.089086	115.629978	33.366872	30.000000	0.000000	119.405863	165.301934	107.143285
3.370340E+9	129.438636	116.469605	120.961521	116.469605	33.605339	30.000000	0.000000	119.697906	164.920732	106.086123
3.370340E+9	129.438636	117.238653	121.760230	117.238653	33.827235	30.000000	0.000000	119.904771	164.527234	104.902878
3.370340E+9	129.438636	117.926173	122.474265	117.926173	34.025607	30.000000	0.000000	120.062961	164.109142	103.651743
3.370340E+9	129.448420	118.530948	123.102762	118.530948	34.196567	30.000000	0.000000	120.221152	163.617269	102.361812
3.370340E+9	129.458207	119.018904	123.609939	119.018904	34.333791	30.000000	0.000000	120.184646	163.113100	101.042786
3.370340E+9	129.458207	119.394911	124.000449	119.394911	34.442259	30.000000	0.000000	120.135972	162.621227	99.781952
3.370340E+9	129.448422	119.655317	124.270499	119.655317	34.520950	30.000000	0.000000	119.916939	162.080167	98.540515
3.370340E+9	129.448422	119.819591	124.441110	119.819591	34.568344	30.000000	0.000000	119.637064	161.563701	97.531848
3.370340E+9	129.438636	119.837844	124.459664	119.837844	34.577188	30.000000	0.000000	119.211167	160.961157	96.688060
3.370340E+9	129.438636	119.770917	124.390156	119.770917	34.557877	30.000000	0.000000	118.736595	160.321722	96.067342
3.370340E+9	129.438636	119.620028	124.233447	119.620028	34.514341	30.000000	0.000000	118.189013	159.805256	95.640598
3.370340E+9	129.438636	119.385176	123.989538	119.385176	34.446578	30.000000	0.000000	117.556251	159.239603	95.427226
3.370340E+9	129.438636	119.065145	123.657164	119.065145	34.354238	30.000000	0.000000	116.862647	158.624762	95.233252
3.370340E+9	129.438636	118.658717	123.235061	118.658717	34.236970	30.000000	0.000000	116.156874	158.022218	95.553310
3.370340E+9	129.448422	118.179278	122.737528	118.179278	34.095109	30.000000	0.000000	115.390259	157.407377	95.912162
3.370340E+9	129.448422	117.632913	122.170089	117.632913	33.937480	30.000000	0.000000	114.672318	156.829427	96.435893
3.370340E+9	129.460461	117.031789	121.546263	117.031789	33.759756	30.000000	0.000000	113.905703	156.251477	97.153598
3.370340E+9	129.471218	116.371040	120.860455	116.371040	33.565333	30.000000	0.000000	113.029571	155.673527	97.939195
3.370340E+9	129.512612	115.659183	120.122777	115.659183	33.345406	30.000000	0.000000	112.092597	155.107874	98.831477
3.370340E+9	129.564761	114.899869	119.336214	114.899869	33.108215	30.000000	0.000000	111.143455	154.566814	99.694663
3.370340E+9	129.638733	114.099182	118.507506	114.099182	32.851760	30.000000	0.000000	110.182144	154.124129	100.664535
3.370340E+9	129.687655	113.259556	117.637339	113.259556	32.593118	30.000000	0.000000	109.159991	153.632257	101.634408
3.370340E+9	129.765945	112.382208	116.729095	112.382208	32.313817	30.000000	0.000000	108.089164	153.140385	102.662473
3.370340E+9	129.807318	111.459836	115.772627	111.459836	32.034547	30.000000	0.000000	106.933158	152.722293	103.816621
3.370340E+9	129.866040	110.492441	114.770023	110.492441	31.736733	30.000000	0.000000	105.716309	152.267312	104.796192
3.370340E+9	129.866040	109.469071	113.707035	109.469071	31.442791	30.000000	0.000000	104.438618	151.861517	105.901847
3.370340E+9	129.905191	108.389726	112.587358	108.389726	31.119839	30.000000	0.000000	103.112254	151.455723	107.036599
3.370340E+9	129.946554	107.262924	111.418438	107.262924	30.782802	30.000000	0.000000	101.761552	151.074522	108.210145
3.370340E+9	129.967138	106.104484	110.215867	106.104484	30.443693	30.000000	0.000000	100.508198	150.668727	109.344897
3.370340E+9	129.998724	104.911973	108.978283	104.911973	30.091439	30.000000	0.000000	99.218339	150.287526	110.508744
3.370340E+9	130.028075	103.712160	107.733009	103.712160	29.738028	30.000000	0.000000	98.184018	149.918622	111.691990
3.370340E+9	130.070447	102.514781	106.490696	102.514781	29.381464	30.000000	0.000000	97.186203	149.475937	112.729755
3.370340E+9	130.070447	101.344173	105.274687	101.344173	29.045959	30.000000	0.000000	96.383084	149.156220	113.816013
3.370340E+9	130.111798	100.225890	104.114452	100.225890	28.712827	30.000000	0.000000	95.750323	148.799613	114.824682
3.370340E+9	130.111798	99.157497	103.004608	99.157497	28.406752	30.000000	0.000000	95.032383	148.258554	116.997200
3.370340E+9	130.190108	98.204705	102.017482	98.204705	28.110373	30.000000	0.000000	94.910698	148.061805	118.083459
3.370340E+9	130.371720	97.384550	101.171539	97.384550	27.821761	30.000000	0.000000	94.910698	148.061805	118.083459
3.370340E+9	130.514167	96.701898	100.467054	96.701898	27.584810	30.000000	0.000000	94.935035	147.889650	119.092128
3.370340E+9	130.674047	96.157967	99.907203	96.157967	27.382875	30.000000	0.000000	95.068888	147.803572	119.965015
3.370340E+9	130.864421	95.792912	99.534151	95.792912	27.223457	30.000000	0.000000	95.567796	147.975728	120.876697
3.370340E+9	131.006854	95.559278	99.296043	95.559278	27.115683	30.000000	0.000000	95.847671	148.147883	120.925191
3.370340E+9	131.264740	95.468014	99.209621	95.468014	27.014975	30.000000	0.000000	96.273567	148.369225	120.760312
3.370340E+9	131.384391	95.508170	99.255253	95.508170	26.991628	30.000000	0.000000	96.784643	148.565974	120.372362
3.370340E+9	131.507220	95.673661	99.431249	95.673661	27.002715	30.000000	0.000000	97.405236	148.713536	119.974714
3.370340E+9	131.597511	95.974223	99.746573	95.974223	27.061238	30.000000	0.000000	98.037997	148.799613	119.644956
3.370340E+9	131.637837	96.359964	100.148801	96.359964	27.158208	30.000000	0.000000	98.768106	148.811910	119.150320
3.370340E+9	131.659484	96.822366	100.630100	96.822366	27.282171	30.000000	0.000000	99.534720	148.824207	118.781768
3.370340E+9	131.659484	97.371164	101.200481	97.371164	27.436809	30.000000	0.000000	100.423019	148.799613	118.345325
3.370340E+9	131.659484	98.000275	101.854333	98.000275	27.614077	30.000000	0.000000	101.359992	148.713536	117.802195
3.370340E+9	131.669334	98.670758	102.551516	98.670758	27.800053	30.000000	0.000000	102.272628	148.590568	117.278463
3.370340E+9	131.692116	99.397216	103.307319	99.397216	27.997857	30.000000	0.000000	103.112254	148.393819	116.997200
3.370340E+9	131.711714	100.188167	104.130054	100.188167	28.214691	30.000000	0.000000	104.183080	148.221664	116.774129
3.370340E+9	131.733355	101.035094	105.011049	101.035094	28.446565	30.000000	0.000000	105.253907	148.012618	116.560756
3.370340E+9	131.785585	101.922176	105.934856	101.922176	28.680172	30.000000	0.000000	106.276060	147.828166	116.405576
3.370340E+9	131.837819	102.842114	106.892843	102.842114	28.922738	30.000000	0.000000	107.237370	147.631417	116.056422
3.370340E+9	131.922588	103.792472	107.883635	103.792472	29.163322	30.000000	0.000000	108.271692	147.434668	115.590882
3.370340E+9	132.025794	104.768385	108.901702	104.768385	29.404739	30.000000	0.000000	109.293845	147.287107	115.261125
3.370340E+9	132.148586	105.762550	109.939515	105.762550	29.644390	30.000000	0.000000	110.364672	147.188732	114.737393
3.370340E+9	132.249767	106.762799	110.982950	106.762799	29.892008	30.000000	0.000000	111.362488	147.090358	114.155469
3.370340E+9	132.308568	107.772784	112.035017	107.772784	30.155584	30.000000	0.000000	112.372473	146.893609	113.457160
3.370340E+9	132.388961	108.804672	113.110694	108.804672	30.417808	30.000000	0.000000	113.431131	146.770641	112.739453
3.370340E+9	132.388961	109.841427	114.188479	109.841427	30.707647	30.000000	0.000000	114.550633	146.598486	111.905362
3.370340E+9	132.388961	110.876965	115.265000	110.876965	30.997146	30.000000	0.000000	115.609292	146.450925	111.061572
3.370340E+9	132.460815	111.910070	116.341729	111.910070	31.261603	30.000000	0.000000	116.607108	146.303363	110.169289
3.370340E+9	132.551069	112.928573	117.404036	112.928573	31.515245	30.000000	0.000000	117.422398	146.032833	109.199416
3.370340E+9	132.571881	113.900836	118.415637	113.900836	31.779397	30.000000	0.000000	117.994317	145.762304	108.229542
3.370340E+9	132.593454	114.809822	119.361497	114.809822	32.025512	30.000000	0.000000	118.383709	145.479478	107.269368
3.370340E+9	132.603325	115.659183	120.244920	115.659183	32.258979	30.000000	0.000000	118.858280	144.840044	105.116250
3.370340E+9	132.604538	116.414846	121.030593	116.414846	32.469316	30.000000	0.000000	118.919123	144.458843	104.000897
3.370340E+9	132.604538	117.067078	121.708684	117.067078	32.651230	30.000000	0.000000	118.894786	144.065346	102.856447
3.370340E+9	132.604538	117.603708	122.266592	117.603708	32.800902	30.000000	0.000000	118.797438	143.647255	101.711998
3.370340E+9	132.606507	118.004052	122.682888	118.004052	32.911858	30.000000	0.000000	118.554068	143.204570	100.548151
3.370340E+9	132.606507	118.274192	122.963739	118.274192	32.987202	30.000000	0.000000	118.310698	142.737292	99.374605
3.370340E+9	132.606507	118.406829	123.101635	118.406829	33.024195	30.000000	0.000000	117.933474	142.220827	98.162265
3.370340E+9	132.606507	118.416564	123.111756	118.416564	33.026910	30.000000	0.000000	117.519746	141.728955	96.959624
3.370340E+9	132.606507	118.321649	123.013078	118.321649	33.000438	30.000000	0.000000	117.045174	141.200193	95.873367
3.370340E+9	132.606507	118.130604	122.814458	118.130604	32.947154	30.000000	0.000000	116.473255	140.646837	94.990784
3.370340E+9	132.606507	117.828825	122.500714	117.828825	32.862987	30.000000	0.000000	115.840493	140.142669	94.370066
3.370340E+9	132.596637	117.441867	122.098018	117.441867	32.758573	30.000000	0.000000	115.049541	139.540126	93.904528
3.370340E+9	132.596637	116.970946	121.608427	116.970946	32.627217	30.000000	0.000000	114.185578	138.999067	93.691156
3.370340E+9	132.586905	116.417280	121.032424	116.417280	32.476211	30.000000	0.000000	113.260773	138.421118	93.720252
3.370340E+9	132.588119	115.789386	120.379686	115.789386	32.300626	30.000000	0.000000	112.275125	137.880060	93.972419
3.370340E+9	132.597990	115.087264	119.650116	115.087264	32.101322	30.000000	0.000000	111.289477	137.277517	94.350669
3.370340E+9	132.609693	114.307263	118.839646	114.307263	31.879705	30.000000	0.000000	110.133470	136.724162	94.981085
3.370340E+9	132.609693	113.449384	117.947752	113.449384	31.640447	30.000000	0.000000	108.940958	136.158509	95.698791
3.370340E+9	132.609693	112.522145	116.983747	112.522145	31.381845	30.000000	0.000000	107.772784	135.568264	96.445592
3.370340E+9	132.609693	111.531630	115.953957	111.531630	31.105595	30.000000	0.000000	106.568103	135.027205	97.347573
3.370340E+9	132.622751	110.474188	114.855078	110.474188	30.806311	30.000000	0.000000	105.266075	134.510740	98.230156
3.370340E+9	132.632482	109.353471	113.690280	109.353471	30.490571	30.000000	0.000000	103.842363	133.920494	99.151535
3.370340E+9	132.674874	108.165826	112.457096	108.165826	30.145541	30.000000	0.000000	102.309134	133.404029	100.131106
3.370340E+9	132.706311	106.925857	111.169078	106.925857	29.789787	30.000000	0.000000	100.861084	132.887565	101.217363
3.370340E+9	132.746741	105.646949	109.840872	105.646949	29.420549	30.000000	0.000000	99.486046	132.346506	102.352113
3.370340E+9	132.768302	104.342488	108.485392	104.342488	29.050472	30.000000	0.000000	98.244861	131.854635	103.564454
3.370340E+9	132.787903	103.034376	107.126029	103.034376	28.680162	30.000000	0.000000	97.052350	131.338170	104.776795
3.370340E+9	132.818466	101.750601	105.792332	101.750601	28.313403	30.000000	0.000000	96.103209	130.858596	105.998835
3.370340E+9	132.818466	100.498464	104.490458	100.498464	27.964980	30.000000	0.000000	95.251415	130.403615	107.085092
3.370340E+9	132.818466	99.304736	103.249313	99.304736	27.632810	30.000000	0.000000	94.630823	130.010118	108.345927
3.370340E+9	132.818466	98.194970	102.095465	98.194970	27.324003	30.000000	0.000000	94.168421	129.641214	109.422486
3.370340E+9	132.849896	97.202022	101.064115	97.202022	27.038456	30.000000	0.000000	93.912883	129.346092	110.518443
3.370340E+9	133.220779	96.357530	100.198223	96.357530	26.695429	30.000000	0.000000	93.864209	128.940298	112.652165
3.370340E+9	133.363103	95.657842	99.475275	95.657842	26.460421	30.000000	0.000000	93.864209	128.940298	112.652165
3.370340E+9	133.562342	95.116345	98.918607	95.116345	26.253359	30.000000	0.000000	94.071073	128.854220	113.573545
3.370340E+9	133.562342	94.725737	98.512385	94.725737	26.145546	30.000000	0.000000	94.338779	128.829627	114.543418
3.370340E+9	133.959575	94.526174	98.317594	94.526174	25.977058	30.000000	0.000000	95.056719	129.014079	116.260095
3.370340E+9	133.959575	94.461681	98.250514	94.461681	25.959335	30.000000	0.000000	95.458279	129.186233	116.919610
3.370340E+9	134.090324	94.531041	98.326851	94.531041	25.941089	30.000000	0.000000	95.945018	129.407575	117.365752
3.370340E+9	134.291448	94.712352	98.521903	94.712352	25.933369	30.000000	0.000000	96.443926	129.653511	117.656714
3.370340E+9	134.543067	95.001961	98.831266	95.001961	25.940581	30.000000	0.000000	97.064518	129.874853	117.753701
3.370340E+9	134.543067	95.391353	99.236353	95.391353	26.046906	30.000000	0.000000	97.806796	130.022414	117.734304
3.370340E+9	134.626470	95.856189	99.722635	95.856189	26.149731	30.000000	0.000000	98.512567	130.120789	117.569425
3.370340E+9	134.678778	96.398903	100.288948	96.398903	26.282586	30.000000	0.000000	99.291350	130.243756	117.326957
3.370340E+9	134.711473	97.004893	100.920467	97.004893	26.438248	30.000000	0.000000	100.130975	130.268350	116.977802
3.370340E+9	134.711473	97.668075	101.610418	97.668075	26.618996	30.000000	0.000000	100.970601	130.206866	116.463769
3.370340E+9	134.711473	98.359245	102.329487	98.359245	26.807371	30.000000	0.000000	101.968416	130.108492	116.037024
3.370340E+9	134.721398	99.108823	103.109655	99.108823	27.008701	30.000000	0.000000	102.954063	130.010118	115.513292
3.370340E+9	134.732864	99.924111	103.958243	99.924111	27.227427	30.000000	0.000000	104.097901	129.825666	114.853778
3.370340E+9	134.732864	100.796592	104.865947	100.796592	27.465161	30.000000	0.000000	105.168727	129.592027	114.058482
3.370340E+9	134.732864	101.721396	105.828088	101.721396	27.717153	30.000000	0.000000	106.312565	129.370685	113.272884
3.370340E+9	134.742789	102.690008	106.836149	102.690008	27.978010	30.000000	0.000000	107.492908	129.124750	112.438793
3.370340E+9	134.817869	103.710943	107.900943	103.710943	28.232703	30.000000	0.000000	108.721926	128.829627	111.527112
3.370340E+9	134.817869	104.770818	109.003638	104.770818	28.521227	30.000000	0.000000	109.890101	128.571394	110.605732
3.370340E+9	134.905805	105.865982	110.146200	105.865982	28.791313	30.000000	0.000000	111.082613	128.251678	109.597064
3.370340E+9	134.948196	107.000085	111.327691	107.000085	29.086082	30.000000	0.000000	112.311630	127.944259	108.549601
3.370340E+9	134.989181	108.289945	112.671222	108.289945	29.423340	30.000000	0.000000	114.867014	127.304826	106.309194
3.370340E+9	135.020129	109.481240	113.911863	109.481240	29.736822	30.000000	0.000000	114.867014	127.304826	106.309194
3.370340E+9	135.071039	110.682270	115.163405	110.682270	30.046072	30.000000	0.000000	116.108200	126.972813	105.087154
3.370340E+9	135.100336	111.873565	116.404041	111.873565	30.359595	30.000000	0.000000	117.081680	126.677691	103.855416
3.370340E+9	135.139563	113.080679	117.661541	113.080679	30.673820	30.000000	0.000000	118.383709	126.038258	101.314350
3.370340E+9	135.170528	114.218433	118.846582	114.218433	30.971795	30.000000	0.000000	118.870449	125.706245	99.985625
3.370340E+9	135.170528	115.272225	119.943073	115.272225	31.257545	30.000000	0.000000	119.259841	125.325045	98.753887
3.370340E+9	135.191883	116.239620	120.950507	116.239620	31.512393	30.000000	0.000000	119.564053	124.906955	97.434861
3.370340E+9	135.211497	117.108451	121.855327	117.108451	31.741018	30.000000	0.000000	119.770917	124.587239	96.115835
3.370340E+9	135.234273	117.871415	122.650126	117.871415	31.939731	30.000000	0.000000	119.941276	124.193742	94.728919
3.370340E+9	135.234273	118.382492	123.181923	118.382492	32.078218	30.000000	0.000000	119.977782	123.812542	93.448688
3.370340E+9	135.234273	118.892352	123.712453	118.892352	32.216375	30.000000	0.000000	119.965613	123.308374	92.498214
3.370340E+9	135.234273	119.262274	124.097373	119.262274	32.316613	30.000000	0.000000	119.807423	122.939471	91.547740
3.370340E+9	135.234273	119.521463	124.367070	119.521463	32.386846	30.000000	0.000000	119.673569	122.423007	90.752445
3.370340E+9	135.244206	119.618811	124.468766	119.618811	32.409648	30.000000	0.000000	119.357189	121.943433	90.044439
3.370340E+9	135.244206	119.628546	124.478896	119.628546	32.412286	30.000000	0.000000	118.967797	121.488452	89.627395
3.370340E+9	135.244206	119.549451	124.396594	119.549451	32.390856	30.000000	0.000000	118.468888	121.008878	89.181254
3.370340E+9	135.244206	119.381526	124.221860	119.381526	32.345358	30.000000	0.000000	117.884800	120.467820	89.016376
3.370340E+9	135.245942	119.113819	123.943369	119.113819	32.272203	30.000000	0.000000	117.093848	120.000543	88.870895
3.370340E+9	135.257301	118.745113	123.560170	118.745113	32.168247	30.000000	0.000000	116.254222	119.459485	88.783607
3.370340E+9	135.266983	118.279060	123.075606	118.279060	32.038546	30.000000	0.000000	115.317248	118.967614	88.899991
3.370340E+9	135.266983	117.713225	122.486825	117.713225	31.885277	30.000000	0.000000	114.307263	118.488040	88.996978
3.370340E+9	135.266983	117.060993	121.808144	117.060993	31.708605	30.000000	0.000000	113.285110	118.008466	89.016376
3.370340E+9	135.280081	116.312631	121.029949	116.312631	31.501309	30.000000	0.000000	112.189945	117.455111	89.084267
3.370340E+9	135.299694	115.363488	120.043077	115.363488	31.237440	30.000000	0.000000	109.865764	116.422183	89.831068
3.370340E+9	135.299694	114.453285	119.095953	114.453285	30.990981	30.000000	0.000000	109.865764	116.422183	89.831068
3.370340E+9	135.301428	113.472505	118.075454	113.472505	30.724819	30.000000	0.000000	108.661083	115.930312	90.306305
3.370340E+9	135.322475	112.418713	116.979717	112.418713	30.432365	30.000000	0.000000	107.346887	115.438442	90.849433
3.370340E+9	135.343819	111.186045	115.697841	111.186045	30.091533	30.000000	0.000000	104.767167	114.393217	91.722317
3.370340E+9	135.343819	109.899836	114.359438	109.899836	29.743432	30.000000	0.000000	103.392129	114.061204	92.139362
3.370340E+9	135.363430	108.558868	112.964776	108.558868	29.374104	30.000000	0.000000	101.907574	113.581630	92.711586
3.370340E+9	135.405822	107.175311	111.526604	107.175311	28.986068	30.000000	0.000000	100.471693	113.102056	93.254714
3.370340E+9	135.446491	105.750382	110.045277	105.750382	28.587750	30.000000	0.000000	99.035812	112.622482	94.127598
3.370340E+9	135.446491	104.307199	108.543482	104.307199	28.197611	30.000000	0.000000	97.758122	112.192096	94.874400
3.370340E+9	135.467825	102.978401	107.161460	102.978401	27.831784	30.000000	0.000000	96.577779	111.700225	95.621201
3.370340E+9	135.497112	101.546170	105.672057	101.546170	27.435752	30.000000	0.000000	95.543459	111.306729	96.212823
3.370340E+9	135.507049	100.149229	104.218693	100.149229	27.055332	30.000000	0.000000	94.691665	110.900936	96.736553
3.370340E+9	135.546273	98.815563	102.832146	98.815563	26.683384	30.000000	0.000000	94.010230	110.445955	97.366970
3.370340E+9	135.588664	97.681461	101.653345	97.681461	26.364686	30.000000	0.000000	93.426144	110.064756	98.065278
3.370340E+9	135.627889	96.633755	100.564319	96.633755	26.070506	30.000000	0.000000	92.915068	109.720447	98.831477
3.370340E+9	135.627889	95.683396	99.575305	95.683396	25.814112	30.000000	0.000000	92.403992	109.339247	99.578279
3.370340E+9	135.689892	94.849856	98.709849	94.849856	25.571549	30.000000	0.000000	92.136285	109.031828	100.354176
3.370340E+9	135.830347	94.147734	97.983623	94.147734	25.342503	30.000000	0.000000	92.014600	108.761299	101.168869
3.370340E+9	135.970805	93.578250	97.395377	93.578250	25.149709	30.000000	0.000000	92.063274	108.527661	101.799286
3.370340E+9	136.088495	93.134100	96.936813	93.134100	24.997410	30.000000	0.000000	92.136285	108.404693	102.429703
3.370340E+9	136.207842	92.807985	96.601122	92.807985	24.876611	30.000000	0.000000	92.282307	108.318616	102.904941
3.370340E+9	136.327045	92.590169	96.378130	92.590169	24.785086	30.000000	0.000000	92.513508	108.207945	103.273492
3.370340E+9	136.446379	92.470918	96.257725	92.470918	24.720038	30.000000	0.000000	92.817720	108.134164	103.680839
3.370340E+9	136.567222	92.480653	96.271629	92.480653	24.689101	30.000000	0.000000	93.523491	108.232538	104.679808
3.370340E+9	136.567222	92.541495	96.334965	92.541495	24.705344	30.000000	0.000000	93.523491	108.232538	104.679808
3.370340E+9	136.758429	92.680216	96.485349	92.680216	24.689213	30.000000	0.000000	93.791198	108.171055	105.145347
3.370340E+9	136.820425	92.894381	96.710249	92.894381	24.728993	30.000000	0.000000	94.277937	108.183351	106.192809
3.370340E+9	136.890842	93.160871	96.989897	93.160871	24.780262	30.000000	0.000000	94.679497	108.195648	106.406181
3.370340E+9	136.952833	93.479685	97.323768	93.479685	24.847690	30.000000	0.000000	95.251415	108.183351	106.755335
3.370340E+9	137.024798	93.844739	97.706111	93.844739	24.924479	30.000000	0.000000	95.786828	108.134164	107.026900
3.370340E+9	137.065601	94.245082	98.124222	94.245082	25.019281	30.000000	0.000000	96.285736	108.048087	107.414849
3.370340E+9	137.106407	94.678280	98.576552	94.678280	25.122703	30.000000	0.000000	96.845486	107.962010	107.880388
3.370340E+9	137.139139	95.124863	99.042572	95.124863	25.231872	30.000000	0.000000	97.283551	107.912823	108.345927
3.370340E+9	137.197994	95.545892	99.482836	95.545892	25.326700	30.000000	0.000000	97.733785	107.765262	108.830864
3.370340E+9	137.259984	96.010728	99.968830	96.010728	25.432083	30.000000	0.000000	98.171850	107.691481	109.141223
3.370340E+9	137.318839	96.508419	100.488951	96.508419	25.546900	30.000000	0.000000	98.768106	107.593107	109.441884
3.370340E+9	137.400445	97.019495	101.023773	97.019495	25.658474	30.000000	0.000000	99.388698	107.543920	109.606762
3.370340E+9	137.472416	97.548824	101.577312	97.548824	25.777439	30.000000	0.000000	99.972785	107.433249	109.878327
3.370340E+9	137.554021	98.080586	102.133729	98.080586	25.893993	30.000000	0.000000	100.569041	107.396359	110.023808
3.370340E+9	137.625995	98.619650	102.697459	98.619650	26.015061	30.000000	0.000000	101.177465	107.248798	110.140193
3.370340E+9	137.676475	99.161148	103.263031	99.161148	26.142921	30.000000	0.000000	101.700710	107.162720	110.246879
3.370340E+9	137.766453	99.701428	103.828679	99.701428	26.258514	30.000000	0.000000	102.248291	107.064346	110.460251
3.370340E+9	137.818809	100.251443	104.403228	100.251443	26.387666	30.000000	0.000000	102.783705	107.002863	110.683322
3.370340E+9	137.877665	100.813627	104.990690	100.813627	26.517890	30.000000	0.000000	103.355623	106.867598	110.925790
3.370340E+9	137.930022	101.377028	105.579220	101.377028	26.650208	30.000000	0.000000	103.805857	106.769224	111.119765
3.370340E+9	137.988879	101.941646	106.169259	101.941646	26.780689	30.000000	0.000000	104.414281	106.683147	111.061572

