LabVIEW Measurement	
Writer_Version	0.92
Reader_Version	1
Separator	Tab
Multi_Headings	Yes
X_Columns	One
Time_Pref	Absolute
Operator	LHRI
Description	This is a HULC measurement file.
Date	2010/10/18
Time	19:13:33.720999
***End_of_Header***	
	
Channels	10										
Samples	1790	1790	1790	1790	1790	1790	1790	1790	1790	1790	
Date	2010/10/18	2010/10/18	2010/10/18	2010/10/18	2010/10/18	2010/10/18	2010/10/18	2010/10/18	2010/10/18	2010/10/18	
Time	19:13:52.313999	19:13:52.313999	19:13:52.313999	19:13:52.313999	19:13:52.313999	19:13:52.313999	19:13:52.313999	19:13:52.313999	19:13:52.313999	19:13:52.313999	
X_Dimension	Time	Time	Time	Time	Time	Time	Time	Time	Time	Time	
X0	7.9704699993133545E+2	7.9704699993133545E+2	7.9704699993133545E+2	7.9704699993133545E+2	7.9704699993133545E+2	7.9704699993133545E+2	7.9704699993133545E+2	7.9704699993133545E+2	7.9704699993133545E+2	7.9704699993133545E+2	
Delta_X	0.010000	0.010000	0.010000	0.010000	0.010000	0.010000	0.010000	0.010000	0.010000	0.010000	
***End_of_Header***											
X_Value	Joint Angle (Resampled)	Brachialis Motor Mount (Prime Mover) (Resampled)	Biceps (Resampled)	Brachialis (Resampled)	Brachioradialis (Resampled)	Supinator (Resampled)	Pronator Terres (Resampled)	Brachialis Motor Mount (Resampled)	Triceps Motor Mount (Resampled)	Biceps Motor Mount (Resampled)	Comment
797.047000	156.539097	1.870685	1.955716	1.870685	0.425156	30.000000	0.000000	1.870685	10.756339	3.987980
797.057000	156.539097	1.919358	2.006602	1.919358	0.436218	30.000000	0.000000	1.968032	10.510404	3.987980
797.067000	156.539097	1.935583	2.023564	1.935583	0.439905	30.000000	0.000000	1.968032	10.178393	4.007377
797.077000	156.539097	1.949780	2.038406	1.949780	0.443132	30.000000	0.000000	1.992369	9.932459	4.017076
797.087000	156.539097	1.948563	2.037134	1.948563	0.442855	30.000000	0.000000	1.943695	9.526667	3.968582
797.097000	156.539097	1.955864	2.044767	1.955864	0.444515	30.000000	0.000000	1.992369	9.329919	3.958884
797.107000	156.548205	1.957602	2.046584	1.957602	0.444910	30.000000	0.000000	1.968032	9.047095	3.968582
797.117000	156.548205	1.966511	2.055898	1.966511	0.446934	30.000000	0.000000	2.028875	8.776567	3.987980
797.127000	156.548205	1.970736	2.060315	1.970736	0.447895	30.000000	0.000000	2.004538	8.555226	3.958884
797.137000	156.548205	1.974116	2.063849	1.974116	0.448663	30.000000	0.000000	2.004538	8.309292	3.978281
797.147000	156.548205	1.988719	2.079115	1.988719	0.451982	30.000000	0.000000	2.016706	8.124841	3.978281
797.157000	156.548205	1.996020	2.086748	1.996020	0.453641	30.000000	0.000000	2.041043	7.878906	4.094665
797.167000	156.548205	2.004538	2.095653	2.004538	0.455577	30.000000	0.000000	2.053211	7.608379	4.143158
797.177000	156.548205	2.013056	2.104558	2.013056	0.457513	30.000000	0.000000	2.077548	7.399334	4.288639
797.187000	156.548205	2.025224	2.117280	2.025224	0.460278	30.000000	0.000000	2.065380	7.141103	4.434119
797.197000	156.548205	2.039826	2.132545	2.039826	0.463597	30.000000	0.000000	2.138391	6.944356	4.579599
797.207000	156.548205	2.058079	2.151628	2.058079	0.467745	30.000000	0.000000	2.150559	6.723015	4.695983
797.217000	156.548205	2.072681	2.166894	2.072681	0.471064	30.000000	0.000000	2.174896	6.489377	4.928751
797.227000	156.548205	2.092150	2.187248	2.092150	0.475489	30.000000	0.000000	2.199233	6.231146	5.132423
797.237000	156.548205	2.116487	2.212691	2.116487	0.481020	30.000000	0.000000	2.247907	6.108179	5.355493
797.247000	156.548205	2.142041	2.239407	2.142041	0.486828	30.000000	0.000000	2.272243	5.911431	5.578563
797.257000	156.548205	2.170028	2.268666	2.170028	0.493188	30.000000	0.000000	2.320917	5.763871	5.879222
797.267000	156.548205	2.200450	2.300470	2.200450	0.500102	30.000000	0.000000	2.357423	5.579420	6.160483
797.277000	156.548205	2.228437	2.329730	2.228437	0.506463	30.000000	0.000000	2.357423	5.419563	6.451443
797.287000	156.548205	2.262509	2.365350	2.262509	0.514207	30.000000	0.000000	2.406096	5.259705	6.781198
797.297000	156.548205	2.295363	2.399698	2.295363	0.521674	30.000000	0.000000	2.466939	5.161332	7.159447
797.307000	156.558470	2.329435	2.435319	2.329435	0.529417	30.000000	0.000000	2.491275	4.976881	7.489202
797.317000	156.558470	2.364724	2.472211	2.364724	0.537437	30.000000	0.000000	2.527781	4.927694	7.867450
797.327000	156.558470	2.393928	2.502743	2.393928	0.544075	30.000000	0.000000	2.491275	4.903101	8.197205
797.337000	156.558470	2.437734	2.548540	2.437734	0.554031	30.000000	0.000000	2.685971	4.866210	8.895510
797.347000	156.558470	2.479107	2.591794	2.479107	0.563433	30.000000	0.000000	2.685971	4.866210	8.895510
797.357000	156.567577	2.518046	2.632503	2.518046	0.572283	30.000000	0.000000	2.710308	4.878507	9.244662
797.367000	156.567577	2.561852	2.678300	2.561852	0.582239	30.000000	0.000000	2.795487	4.829320	9.545321
797.377000	156.567577	2.611743	2.730459	2.611743	0.593578	30.000000	0.000000	2.856329	5.050661	10.175735
797.387000	156.567577	2.662851	2.783889	2.662851	0.605193	30.000000	0.000000	2.917171	5.136738	10.505490
797.397000	156.567577	2.712741	2.836048	2.712741	0.616532	30.000000	0.000000	2.965845	5.296596	10.815848
797.407000	156.567577	2.762632	2.888206	2.762632	0.627871	30.000000	0.000000	2.990182	5.419563	11.077712
797.417000	156.567577	2.807655	2.935276	2.807655	0.638103	30.000000	0.000000	2.978013	5.554827	11.223192
797.427000	156.567577	2.868497	2.998884	2.868497	0.651931	30.000000	0.000000	3.099698	5.776168	11.533550
797.437000	156.567577	2.911087	3.043409	2.911087	0.661611	30.000000	0.000000	3.111866	5.899135	11.708126
797.447000	156.567577	2.963411	3.098112	2.963411	0.673503	30.000000	0.000000	3.209214	6.058992	11.969990
797.457000	156.567577	3.013302	3.150270	3.013302	0.684841	30.000000	0.000000	3.209214	6.268036	12.115471
797.467000	156.567577	3.063192	3.202428	3.063192	0.696180	30.000000	0.000000	3.294393	6.501674	12.222156
797.477000	156.567577	3.110649	3.252043	3.110649	0.706966	30.000000	0.000000	3.330898	6.686125	12.299745
797.487000	156.567577	3.158106	3.301657	3.158106	0.717751	30.000000	0.000000	3.391741	6.895169	12.396732
797.497000	156.567577	3.205563	3.351271	3.205563	0.728537	30.000000	0.000000	3.440414	7.018136	12.435527
797.507000	156.567577	3.256671	3.404701	3.256671	0.740152	30.000000	0.000000	3.501257	7.300961	12.445226
797.517000	156.567577	3.316296	3.467037	3.316296	0.753704	30.000000	0.000000	3.574267	7.559192	12.416130
797.527000	156.567577	3.369837	3.523012	3.369837	0.765872	30.000000	0.000000	3.635109	7.792829	12.357938
797.537000	156.567577	3.425812	3.581531	3.425812	0.778594	30.000000	0.000000	3.671615	8.075654	12.309444
797.547000	156.567577	3.476920	3.634961	3.476920	0.790209	30.000000	0.000000	3.720289	8.346182	12.212457
797.557000	156.567577	3.532894	3.693481	3.532894	0.802931	30.000000	0.000000	3.768962	8.641303	12.028183
797.567000	156.567577	3.585219	3.748183	3.585219	0.814822	30.000000	0.000000	3.817636	8.936424	11.863305
797.577000	156.558470	3.637543	3.802886	3.637543	0.826714	30.000000	0.000000	3.854141	9.206952	11.717825
797.587000	156.558470	3.689867	3.857589	3.689867	0.838606	30.000000	0.000000	3.914984	9.489777	11.591742
797.597000	156.558470	3.740975	3.911019	3.740975	0.850222	30.000000	0.000000	3.951489	9.748008	11.417166
797.607000	156.558470	3.793299	3.965722	3.793299	0.862113	30.000000	0.000000	4.024500	10.055426	11.194096
797.617000	156.558470	3.844407	4.019152	3.844407	0.873729	30.000000	0.000000	4.085342	10.387437	11.038917
797.627000	156.558470	3.891864	4.068767	3.891864	0.884514	30.000000	0.000000	4.109679	10.682558	10.835245
797.637000	156.558470	3.945405	4.124741	3.945405	0.896683	30.000000	0.000000	4.207026	10.928493	10.699464
797.647000	156.558470	3.995295	4.176900	3.995295	0.908022	30.000000	0.000000	4.219195	11.285098	10.486093
797.657000	156.548205	4.043969	4.227786	4.043969	0.919084	30.000000	0.000000	4.255700	11.592516	10.263023
797.667000	156.548205	4.092643	4.278672	4.092643	0.930146	30.000000	0.000000	4.304374	11.949120	10.049652
797.677000	156.548205	4.144967	4.333375	4.144967	0.942038	30.000000	0.000000	4.377385	12.244242	9.807186
797.687000	156.548205	4.197292	4.388078	4.197292	0.953930	30.000000	0.000000	4.438227	12.551660	9.613212
797.697000	156.548205	4.254483	4.447869	4.254483	0.966928	30.000000	0.000000	4.523406	13.240276	9.225265
797.707000	156.548205	4.304374	4.500027	4.304374	0.978267	30.000000	0.000000	4.523406	13.240276	9.225265
797.717000	156.548205	4.351831	4.549641	4.351831	0.989052	30.000000	0.000000	4.559911	13.572287	9.050689
797.727000	156.548205	4.400505	4.600528	4.400505	1.000115	30.000000	0.000000	4.596417	13.892002	8.885811
797.737000	156.548205	4.447962	4.650142	4.447962	1.010900	30.000000	0.000000	4.681596	14.617508	8.526960
797.747000	156.548205	4.496635	4.701028	4.496635	1.021963	30.000000	0.000000	4.705933	14.937223	8.410576
797.757000	156.539097	4.546526	4.753186	4.546526	1.033301	30.000000	0.000000	4.754607	15.293828	8.265096
797.767000	156.539097	4.593983	4.802800	4.593983	1.044087	30.000000	0.000000	4.778943	15.588949	8.148712
797.777000	156.539097	4.636573	4.847326	4.636573	1.053766	30.000000	0.000000	4.803280	15.945554	8.032328
797.787000	156.525800	4.677945	4.890579	4.677945	1.063169	30.000000	0.000000	4.851954	16.289862	7.935341
797.797000	156.525800	4.712017	4.926200	4.712017	1.070913	30.000000	0.000000	4.864123	16.584983	7.809258
797.807000	156.525800	4.750956	4.966909	4.750956	1.079763	30.000000	0.000000	4.912796	16.916995	7.721970
797.817000	156.506428	4.785028	5.002529	4.785028	1.087506	30.000000	0.000000	4.900628	17.236710	7.605586
797.827000	156.506428	4.817882	5.036877	4.817882	1.094973	30.000000	0.000000	4.924965	17.544128	7.527997
797.837000	156.484025	4.844653	5.064865	4.844653	1.101058	30.000000	0.000000	4.949302	17.863842	7.392215
797.847000	156.463498	4.872640	5.094124	4.872640	1.107418	30.000000	0.000000	4.985807	18.158964	7.343722
797.857000	156.454389	4.895761	5.118295	4.895761	1.112673	30.000000	0.000000	4.985807	18.466382	7.285530
797.867000	156.421946	4.917664	5.141194	4.917664	1.117651	30.000000	0.000000	4.997975	18.773799	7.256434
797.877000	156.421946	4.940784	5.165365	4.940784	1.122905	30.000000	0.000000	5.034481	19.068921	7.169146
797.887000	156.411681	4.960253	5.185719	4.960253	1.127330	30.000000	0.000000	5.046649	19.364042	7.159447
797.897000	156.402570	4.980940	5.207346	4.980940	1.132032	30.000000	0.000000	5.070986	19.708350	7.140050
797.907000	156.402570	4.997975	5.225156	4.997975	1.135904	30.000000	0.000000	5.083155	19.954285	7.178844
797.917000	156.392305	5.016228	5.244238	5.016228	1.140052	30.000000	0.000000	5.083155	20.310889	7.217639
797.927000	156.392305	5.034481	5.263321	5.034481	1.144200	30.000000	0.000000	5.107491	20.642901	7.256434
797.937000	156.380172	5.049083	5.278587	5.049083	1.147519	30.000000	0.000000	5.095323	20.962616	7.363119
797.947000	156.369907	5.064902	5.295125	5.064902	1.151114	30.000000	0.000000	5.143997	21.319220	7.440708
797.957000	156.369907	5.083155	5.314207	5.083155	1.155262	30.000000	0.000000	5.168334	21.638935	7.576490
797.967000	156.360795	5.098974	5.330745	5.098974	1.158858	30.000000	0.000000	5.156165	22.007837	7.663778
797.977000	156.350531	5.108708	5.340922	5.108708	1.161070	30.000000	0.000000	5.131828	22.364442	7.799560
797.987000	156.350531	5.117226	5.349827	5.117226	1.163006	30.000000	0.000000	5.131828	22.671860	7.983834
797.997000	156.350531	5.123310	5.356188	5.123310	1.164389	30.000000	0.000000	5.131828	23.053058	8.168109
798.007000	156.350531	5.128178	5.361277	5.128178	1.165495	30.000000	0.000000	5.131828	23.323586	8.371781
798.017000	156.331153	5.133045	5.366365	5.133045	1.166601	30.000000	0.000000	5.131828	23.729377	8.565755
798.027000	156.328136	5.137913	5.371454	5.137913	1.167707	30.000000	0.000000	5.156165	24.085982	8.750030
798.037000	156.328136	5.141563	5.375271	5.141563	1.168537	30.000000	0.000000	5.131828	24.467181	8.934305
798.047000	156.308758	5.143997	5.377815	5.143997	1.169090	30.000000	0.000000	5.168334	24.799192	9.244662
798.057000	156.308758	5.142780	5.376543	5.142780	1.168814	30.000000	0.000000	5.156165	25.192687	9.458033
798.067000	156.308758	5.142780	5.376543	5.142780	1.168814	30.000000	0.000000	5.156165	25.549292	9.613212
798.077000	156.308758	5.143997	5.377815	5.143997	1.169090	30.000000	0.000000	5.143997	25.918194	9.894474
798.087000	156.299643	5.145214	5.379087	5.145214	1.169367	30.000000	0.000000	5.143997	26.299392	10.069050
798.097000	156.289379	5.145214	5.379087	5.145214	1.169367	30.000000	0.000000	5.131828	26.692887	10.311517
798.107000	156.289171	5.142780	5.376543	5.142780	1.168814	30.000000	0.000000	5.107491	27.430690	10.689765
798.117000	156.280056	5.140346	5.373998	5.140346	1.168261	30.000000	0.000000	5.107491	27.430690	10.689765
798.127000	156.280056	5.136696	5.370182	5.136696	1.167431	30.000000	0.000000	5.119660	27.836482	10.864341
798.137000	156.269794	5.134262	5.367638	5.134262	1.166878	30.000000	0.000000	5.107491	28.205383	11.038917
798.147000	156.269794	5.124527	5.357460	5.124527	1.164665	30.000000	0.000000	5.070986	28.992374	11.291083
798.157000	156.269794	5.117226	5.349827	5.117226	1.163006	30.000000	0.000000	5.083155	29.361275	11.407467
798.167000	156.260677	5.109925	5.342194	5.109925	1.161347	30.000000	0.000000	5.083155	29.730177	11.436563
798.177000	156.260677	5.106275	5.338378	5.106275	1.160517	30.000000	0.000000	5.107491	30.111375	11.514153
798.187000	156.250415	5.098974	5.330745	5.098974	1.158858	30.000000	0.000000	5.070986	30.517167	11.533550
798.197000	156.241297	5.092889	5.324384	5.092889	1.157475	30.000000	0.000000	5.070986	30.910662	11.543249
798.207000	156.241297	5.085588	5.316751	5.085588	1.155816	30.000000	0.000000	5.034481	31.291860	11.504454
798.217000	156.231035	5.081938	5.312935	5.081938	1.154986	30.000000	0.000000	5.070986	31.709949	11.426865
798.227000	156.231035	5.077070	5.307846	5.077070	1.153880	30.000000	0.000000	5.070986	32.140334	11.281384
798.237000	156.231035	5.072203	5.302758	5.072203	1.152773	30.000000	0.000000	5.058818	32.521532	11.252288
798.247000	156.231035	5.070986	5.301486	5.070986	1.152497	30.000000	0.000000	5.058818	32.927324	11.068014
798.257000	156.231035	5.068552	5.298941	5.068552	1.151944	30.000000	0.000000	5.058818	33.345413	10.951629
798.267000	156.231035	5.067336	5.297669	5.067336	1.151667	30.000000	0.000000	5.070986	33.763501	10.854643
798.277000	156.199326	5.063685	5.293853	5.063685	1.150838	30.000000	0.000000	5.070986	34.144700	10.670368
798.287000	156.199326	5.058818	5.288764	5.058818	1.149731	30.000000	0.000000	5.022312	34.562788	10.524888
798.297000	156.179946	5.055167	5.284947	5.055167	1.148902	30.000000	0.000000	5.034481	34.943987	10.437600
798.307000	156.179946	5.056384	5.286220	5.056384	1.149178	30.000000	0.000000	5.046649	35.349778	10.204831
798.317000	156.170824	5.052733	5.282403	5.052733	1.148349	30.000000	0.000000	5.034481	35.743273	10.078749
798.327000	156.170824	5.050300	5.279859	5.050300	1.147795	30.000000	0.000000	5.046649	36.149065	9.913871
798.337000	156.170824	5.050300	5.279859	5.050300	1.147795	30.000000	0.000000	5.058818	36.542560	9.768391
798.347000	156.170824	5.047866	5.277315	5.047866	1.147242	30.000000	0.000000	5.034481	36.960649	9.574417
798.357000	156.170824	5.050300	5.279859	5.050300	1.147795	30.000000	0.000000	5.083155	37.391034	9.419239
798.367000	156.170824	5.049083	5.278587	5.049083	1.147519	30.000000	0.000000	5.058818	37.772233	9.070086
798.377000	156.170824	5.047866	5.277315	5.047866	1.147242	30.000000	0.000000	5.058818	38.165728	9.040990
798.387000	156.170824	5.050300	5.279859	5.050300	1.147795	30.000000	0.000000	5.046649	38.559223	8.827619
798.397000	156.170824	5.052733	5.282403	5.052733	1.148349	30.000000	0.000000	5.058818	38.965015	8.730632
798.407000	156.170824	5.046649	5.276042	5.046649	1.146966	30.000000	0.000000	4.985807	39.395400	8.507563
798.417000	156.170824	5.049083	5.278587	5.049083	1.147519	30.000000	0.000000	5.058818	39.788895	8.381480
798.427000	156.170824	5.046649	5.276042	5.046649	1.146966	30.000000	0.000000	5.022312	40.206984	8.274795
798.437000	156.170824	5.042999	5.272226	5.042999	1.146136	30.000000	0.000000	5.022312	40.600479	8.197205
798.447000	156.170824	5.041782	5.270954	5.041782	1.145860	30.000000	0.000000	5.022312	40.957084	7.964437
798.457000	156.109672	5.035698	5.264593	5.035698	1.144477	30.000000	0.000000	5.022312	41.362876	7.896546
798.467000	156.029133	5.032047	5.260777	5.032047	1.143647	30.000000	0.000000	5.022312	41.780964	7.818957
798.477000	156.018876	5.030830	5.259504	5.030830	1.143371	30.000000	0.000000	5.046649	42.149866	7.751066
798.487000	156.006751	5.024746	5.253144	5.024746	1.141988	30.000000	0.000000	4.985807	42.567954	7.634682
798.497000	155.996494	5.018662	5.246783	5.018662	1.140605	30.000000	0.000000	4.997975	42.949153	7.566791
798.507000	155.977107	5.021096	5.249327	5.021096	1.141158	30.000000	0.000000	5.010144	43.342648	7.314626
798.517000	155.935341	5.018662	5.246783	5.018662	1.140605	30.000000	0.000000	5.034481	44.092748	7.401914
798.527000	155.935341	5.019879	5.248055	5.019879	1.140882	30.000000	0.000000	5.034481	44.092748	7.401914
798.537000	155.915953	5.013794	5.241694	5.013794	1.139499	30.000000	0.000000	4.961470	44.461650	7.334023
798.547000	155.893576	5.006493	5.234061	5.006493	1.137839	30.000000	0.000000	4.949302	44.805958	7.324324
798.557000	155.874187	5.000409	5.227700	5.000409	1.136457	30.000000	0.000000	4.961470	45.506871	7.314626
798.567000	155.832590	4.995542	5.222612	4.995542	1.135350	30.000000	0.000000	4.973639	45.888070	7.431010
798.577000	155.813197	4.988241	5.214979	4.988241	1.133691	30.000000	0.000000	4.973639	46.207785	7.343722
798.587000	155.790824	4.984590	5.211162	4.984590	1.132861	30.000000	0.000000	4.949302	46.552093	7.460106
798.597000	155.752035	4.978506	5.204802	4.978506	1.131479	30.000000	0.000000	4.937133	46.859511	7.508599
798.607000	155.700015	4.971205	5.197169	4.971205	1.129819	30.000000	0.000000	4.937133	47.179226	7.644381
798.617000	155.658251	4.959036	5.184447	4.959036	1.127054	30.000000	0.000000	4.912796	47.486644	7.721970
798.627000	155.629709	4.944434	5.169181	4.944434	1.123735	30.000000	0.000000	4.888459	47.781765	7.809258
798.637000	155.577692	4.937133	5.161548	4.937133	1.122076	30.000000	0.000000	4.888459	48.052293	7.799560
798.647000	155.526782	4.928615	5.152643	4.928615	1.120140	30.000000	0.000000	4.864123	48.322821	8.100219
798.657000	155.507380	4.916447	5.139922	4.916447	1.117374	30.000000	0.000000	4.839786	48.605646	8.197205
798.667000	155.455366	4.900628	5.123384	4.900628	1.113779	30.000000	0.000000	4.815449	48.888471	8.352384
798.677000	155.413607	4.886026	5.108118	4.886026	1.110460	30.000000	0.000000	4.827617	49.122108	8.517262
798.687000	155.371849	4.870207	5.091580	4.870207	1.106865	30.000000	0.000000	4.791112	49.355746	8.614248
798.697000	155.310687	4.853171	5.073770	4.853171	1.102993	30.000000	0.000000	4.766775	49.638571	8.798523
798.707000	155.271872	4.832485	5.052143	4.832485	1.098292	30.000000	0.000000	4.730270	49.835319	8.982798
798.717000	155.210706	4.811798	5.030516	4.811798	1.093591	30.000000	0.000000	4.705933	50.032066	9.040990
798.727000	155.158703	4.792329	5.010162	4.792329	1.089166	30.000000	0.000000	4.693764	50.253407	9.196169
798.737000	155.097538	4.769209	4.985991	4.769209	1.083911	30.000000	0.000000	4.657259	50.462452	9.331950
798.747000	155.014037	4.746089	4.961820	4.746089	1.078657	30.000000	0.000000	4.632922	50.646902	9.390142
798.757000	154.975207	4.720535	4.935105	4.720535	1.072849	30.000000	0.000000	4.584248	50.855947	9.506527
798.767000	154.923213	4.691331	4.904573	4.691331	1.066212	30.000000	0.000000	4.523406	51.028101	9.574417
798.777000	154.881548	4.663343	4.875313	4.663343	1.059851	30.000000	0.000000	4.547743	51.212552	9.555020
798.787000	154.839800	4.632922	4.843509	4.632922	1.052937	30.000000	0.000000	4.486901	51.409299	9.719897
798.797000	154.768388	4.602501	4.811706	4.602501	1.046023	30.000000	0.000000	4.462564	51.593750	9.778090
798.807000	154.748966	4.569646	4.777357	4.569646	1.038556	30.000000	0.000000	4.401722	51.790498	9.836282
798.817000	154.717465	4.536791	4.743009	4.536791	1.031089	30.000000	0.000000	4.377385	51.999542	9.845980
798.827000	154.698041	4.502720	4.707389	4.502720	1.023345	30.000000	0.000000	4.353048	52.233180	9.913871
798.837000	154.687798	4.466214	4.669224	4.466214	1.015049	30.000000	0.000000	4.292206	52.503708	9.933268
798.847000	154.665479	4.430926	4.632332	4.430926	1.007029	30.000000	0.000000	4.280037	52.749643	10.020556
798.857000	154.656297	4.396854	4.596711	4.396854	0.999285	30.000000	0.000000	4.243532	53.032467	9.991460
798.867000	154.646054	4.366433	4.564907	4.366433	0.992371	30.000000	0.000000	4.219195	53.290699	10.010858
798.877000	154.626629	4.328711	4.525470	4.328711	0.983798	30.000000	0.000000	4.170521	53.893238	10.001159
798.887000	154.613496	4.297073	4.492394	4.297073	0.976607	30.000000	0.000000	4.170521	53.893238	10.001159
798.897000	154.604313	4.266652	4.460591	4.266652	0.969694	30.000000	0.000000	4.158353	54.225250	9.972063
798.907000	154.584887	4.243532	4.436420	4.243532	0.964439	30.000000	0.000000	4.170521	54.532668	9.913871
798.917000	154.574645	4.220412	4.412249	4.220412	0.959184	30.000000	0.000000	4.146184	55.245878	9.778090
798.927000	154.552333	4.200942	4.391894	4.200942	0.954760	30.000000	0.000000	4.158353	55.565593	9.739295
798.937000	154.552385	4.187557	4.377900	4.187557	0.951717	30.000000	0.000000	4.158353	55.922198	9.613212
798.947000	154.532956	4.175388	4.365179	4.175388	0.948952	30.000000	0.000000	4.158353	56.266507	9.564719
798.957000	154.510645	4.168087	4.357546	4.168087	0.947293	30.000000	0.000000	4.170521	56.610815	9.477431
798.967000	154.480973	4.163220	4.352457	4.163220	0.946186	30.000000	0.000000	4.170521	56.955123	9.351348
798.977000	154.471785	4.165654	4.355002	4.165654	0.946739	30.000000	0.000000	4.194858	57.324025	9.331950
798.987000	154.452354	4.171738	4.361362	4.171738	0.948122	30.000000	0.000000	4.231363	57.656037	9.176772
798.997000	154.439236	4.179039	4.368995	4.179039	0.949782	30.000000	0.000000	4.231363	58.037236	9.099182
799.007000	154.400373	4.187557	4.377900	4.187557	0.951717	30.000000	0.000000	4.255700	58.393841	8.992497
799.017000	154.378068	4.202159	4.393166	4.202159	0.955036	30.000000	0.000000	4.292206	58.750446	8.876113
799.027000	154.358636	4.211894	4.403344	4.211894	0.957249	30.000000	0.000000	4.255700	59.082457	8.750030
799.037000	154.348395	4.227713	4.419882	4.227713	0.960844	30.000000	0.000000	4.316542	59.451359	8.633646
799.047000	154.326094	4.245965	4.438964	4.245965	0.964992	30.000000	0.000000	4.340879	59.807965	8.517262
799.057000	154.306661	4.264218	4.458046	4.264218	0.969140	30.000000	0.000000	4.353048	60.139976	8.391179
799.067000	154.287227	4.282471	4.477129	4.282471	0.973289	30.000000	0.000000	4.353048	60.521175	8.265096
799.077000	154.264929	4.304374	4.500027	4.304374	0.978267	30.000000	0.000000	4.413890	60.840890	8.206904
799.087000	154.245495	4.321410	4.517838	4.321410	0.982139	30.000000	0.000000	4.401722	61.222088	8.032328
799.097000	154.215820	4.343313	4.540736	4.343313	0.987117	30.000000	0.000000	4.450395	61.554100	7.906245
799.107000	154.193545	4.362783	4.561091	4.362783	0.991541	30.000000	0.000000	4.450395	61.898409	7.780162
799.117000	154.151814	4.383469	4.582717	4.383469	0.996243	30.000000	0.000000	4.499069	62.242717	7.654079
799.127000	154.132376	4.407806	4.608161	4.407806	1.001774	30.000000	0.000000	4.499069	62.574729	7.566791
799.137000	154.099847	4.427275	4.628515	4.427275	1.006199	30.000000	0.000000	4.511238	62.906740	7.489202
799.147000	154.080408	4.446745	4.648870	4.446745	1.010624	30.000000	0.000000	4.535574	63.238752	7.363119
799.157000	154.060968	4.466214	4.669224	4.466214	1.015049	30.000000	0.000000	4.547743	63.546171	7.275831
799.167000	154.038681	4.483250	4.687034	4.483250	1.018920	30.000000	0.000000	4.523406	63.828995	7.178844
799.177000	153.977515	4.497852	4.702300	4.497852	1.022239	30.000000	0.000000	4.559911	64.161007	7.120652
799.187000	153.935793	4.514888	4.720110	4.514888	1.026111	30.000000	0.000000	4.572080	64.406942	7.023665
799.197000	153.874621	4.527057	4.732832	4.527057	1.028876	30.000000	0.000000	4.572080	64.689767	6.955775
799.207000	153.835727	4.539225	4.745553	4.539225	1.031642	30.000000	0.000000	4.572080	64.960295	6.878185
799.217000	153.771730	4.547743	4.754459	4.547743	1.033578	30.000000	0.000000	4.584248	65.193933	6.849089
799.227000	153.719778	4.556261	4.763364	4.556261	1.035514	30.000000	0.000000	4.584248	65.439867	6.800596
799.237000	153.658586	4.564779	4.772269	4.564779	1.037450	30.000000	0.000000	4.596417	65.661208	6.723006
799.247000	153.627102	4.574514	4.782446	4.574514	1.039662	30.000000	0.000000	4.632922	65.919440	6.664814
799.257000	153.597416	4.580598	4.788807	4.580598	1.041045	30.000000	0.000000	4.608585	66.165374	6.606622
799.267000	153.588196	4.590332	4.798984	4.590332	1.043257	30.000000	0.000000	4.620754	66.423606	6.606622
799.277000	153.555701	4.597634	4.806617	4.597634	1.044917	30.000000	0.000000	4.632922	66.669540	6.577526
799.287000	153.546443	4.602501	4.811706	4.602501	1.046023	30.000000	0.000000	4.620754	66.976959	6.587225
799.297000	153.513949	4.608585	4.818066	4.608585	1.047406	30.000000	0.000000	4.632922	67.272080	6.577526
799.307000	153.513949	4.615886	4.825699	4.615886	1.049065	30.000000	0.000000	4.645091	67.542608	6.577526
799.317000	153.503715	4.621970	4.832060	4.621970	1.050448	30.000000	0.000000	4.645091	67.899214	6.519334
799.327000	153.481458	4.632922	4.843509	4.632922	1.052937	30.000000	0.000000	4.693764	68.538644	6.577526
799.337000	153.472234	4.642657	4.853687	4.642657	1.055149	30.000000	0.000000	4.693764	68.538644	6.577526
799.347000	153.472234	4.649958	4.861320	4.649958	1.056809	30.000000	0.000000	4.705933	68.932139	6.626020
799.357000	153.452777	4.659693	4.871497	4.659693	1.059021	30.000000	0.000000	4.705933	69.190371	6.723006
799.367000	153.430522	4.666994	4.879130	4.666994	1.060680	30.000000	0.000000	4.693764	69.878988	6.868487
799.377000	153.430522	4.676728	4.889307	4.676728	1.062893	30.000000	0.000000	4.730270	70.235593	6.868487
799.387000	153.411064	4.693764	4.907117	4.693764	1.066765	30.000000	0.000000	4.791112	70.567605	6.946076
799.397000	153.391605	4.703499	4.917294	4.703499	1.068977	30.000000	0.000000	4.730270	70.875023	7.004268
799.407000	153.359072	4.713234	4.927472	4.713234	1.071190	30.000000	0.000000	4.742438	71.194738	7.013967
799.417000	153.349842	4.726619	4.941465	4.726619	1.074232	30.000000	0.000000	4.778943	71.612827	7.198242
799.427000	153.317361	4.733920	4.949098	4.733920	1.075891	30.000000	0.000000	4.766775	71.944839	7.227338
799.437000	153.317361	4.742438	4.958003	4.742438	1.077827	30.000000	0.000000	4.778943	72.276851	7.372818
799.447000	153.317361	4.753390	4.969453	4.753390	1.080316	30.000000	0.000000	4.815449	72.621160	7.421311
799.457000	153.317361	4.765558	4.982174	4.765558	1.083081	30.000000	0.000000	4.827617	72.965468	7.557093
799.467000	153.317361	4.780160	4.997440	4.780160	1.086400	30.000000	0.000000	4.839786	73.334370	7.644381
799.477000	153.317361	4.791112	5.008890	4.791112	1.088889	30.000000	0.000000	4.839786	73.703272	7.780162
799.487000	153.205250	4.799630	5.017795	4.799630	1.090825	30.000000	0.000000	4.876291	73.998394	7.877149
799.497000	153.185719	4.813015	5.031788	4.813015	1.093867	30.000000	0.000000	4.864123	74.391890	7.974136
799.507000	153.182943	4.821533	5.040694	4.821533	1.095803	30.000000	0.000000	4.827617	74.723902	8.148712
799.517000	153.163477	4.830051	5.049599	4.830051	1.097739	30.000000	0.000000	4.864123	75.043617	8.187507
799.527000	153.121770	4.842219	5.062320	4.842219	1.100504	30.000000	0.000000	4.888459	75.437112	8.245699
799.537000	153.102303	4.850737	5.071225	4.850737	1.102440	30.000000	0.000000	4.864123	75.756827	8.362083
799.547000	153.092074	4.855605	5.076314	4.855605	1.103547	30.000000	0.000000	4.864123	76.064246	8.420275
799.557000	153.069838	4.859255	5.080130	4.859255	1.104376	30.000000	0.000000	4.864123	76.482335	8.565755
799.567000	153.050370	4.864123	5.085219	4.864123	1.105482	30.000000	0.000000	4.888459	76.838940	8.585152
799.577000	153.008588	4.870207	5.091580	4.870207	1.106865	30.000000	0.000000	4.900628	77.183249	8.691838
799.587000	152.998360	4.867773	5.089035	4.867773	1.106312	30.000000	0.000000	4.851954	77.515261	8.740331
799.597000	152.989117	4.867773	5.089035	4.867773	1.106312	30.000000	0.000000	4.864123	77.847273	8.808222
799.607000	152.989117	4.872640	5.094124	4.872640	1.107418	30.000000	0.000000	4.876291	78.203878	8.876113
799.617000	152.989117	4.876291	5.097941	4.876291	1.108248	30.000000	0.000000	4.900628	78.560484	8.914907
799.627000	152.989117	4.876291	5.097941	4.876291	1.108248	30.000000	0.000000	4.888459	78.855605	8.953702
799.637000	152.925186	4.877508	5.099213	4.877508	1.108525	30.000000	0.000000	4.876291	79.187617	9.021593
799.647000	152.886241	4.872640	5.094124	4.872640	1.107418	30.000000	0.000000	4.815449	79.544223	9.040990
799.657000	152.853696	4.875074	5.096668	4.875074	1.107971	30.000000	0.000000	4.888459	79.876235	9.108881
799.667000	152.853696	4.872640	5.094124	4.872640	1.107418	30.000000	0.000000	4.864123	80.171357	9.196169
799.677000	152.831474	4.871424	5.092852	4.871424	1.107142	30.000000	0.000000	4.888459	80.527962	9.254361
799.687000	152.811999	4.872640	5.094124	4.872640	1.107418	30.000000	0.000000	4.864123	80.786194	9.254361
799.697000	152.779553	4.872640	5.094124	4.872640	1.107418	30.000000	0.000000	4.864123	81.228876	9.322252
799.707000	152.760077	4.873857	5.095396	4.873857	1.107695	30.000000	0.000000	4.888459	81.548591	9.341649
799.717000	152.750827	4.877508	5.099213	4.877508	1.108525	30.000000	0.000000	4.937133	81.856010	9.390142
799.727000	152.731349	4.873857	5.095396	4.873857	1.107695	30.000000	0.000000	4.851954	82.237209	9.390142
799.737000	152.709027	4.875074	5.096668	4.875074	1.107971	30.000000	0.000000	4.888459	82.569221	9.477431
799.747000	152.698801	4.877508	5.099213	4.877508	1.108525	30.000000	0.000000	4.839786	83.307025	9.496828
799.757000	152.698801	4.873857	5.095396	4.873857	1.107695	30.000000	0.000000	4.851954	83.614444	9.419239
799.767000	152.698801	4.871424	5.092852	4.871424	1.107142	30.000000	0.000000	4.839786	83.946456	9.409540
799.777000	152.679322	4.861689	5.082675	4.861689	1.104929	30.000000	0.000000	4.791112	84.315358	9.370745
799.787000	152.679322	4.861689	5.082675	4.861689	1.104929	30.000000	0.000000	4.864123	84.659667	9.302854
799.797000	152.543904	4.860472	5.081403	4.860472	1.104653	30.000000	0.000000	4.851954	84.979382	9.244662
799.807000	152.502215	4.855605	5.076314	4.855605	1.103547	30.000000	0.000000	4.839786	85.311394	9.244662
799.817000	152.472507	4.845870	5.066137	4.845870	1.101334	30.000000	0.000000	4.839786	85.631110	9.079785
799.827000	152.450306	4.847087	5.067409	4.847087	1.101611	30.000000	0.000000	4.864123	85.938528	8.982798
799.837000	152.408491	4.841002	5.061048	4.841002	1.100228	30.000000	0.000000	4.827617	86.258244	8.914907
799.847000	152.369517	4.842219	5.062320	4.842219	1.100504	30.000000	0.000000	4.851954	86.860784	8.720934
799.857000	152.337097	4.842219	5.062320	4.842219	1.100504	30.000000	0.000000	4.851954	86.860784	8.720934
799.867000	152.314904	4.843436	5.063592	4.843436	1.100781	30.000000	0.000000	4.851954	87.168203	8.653043
799.877000	152.275785	4.849520	5.069953	4.849520	1.102164	30.000000	0.000000	4.851954	87.451028	8.400877
799.887000	152.243371	4.844653	5.064865	4.844653	1.101058	30.000000	0.000000	4.815449	88.053568	8.352384
799.897000	152.201694	4.844653	5.064865	4.844653	1.101058	30.000000	0.000000	4.851954	88.348690	8.197205
799.907000	152.159866	4.844653	5.064865	4.844653	1.101058	30.000000	0.000000	4.839786	88.606922	8.100219
799.917000	152.107968	4.847087	5.067409	4.847087	1.101611	30.000000	0.000000	4.864123	88.902044	7.954738
799.927000	152.068981	4.847087	5.067409	4.847087	1.101611	30.000000	0.000000	4.864123	89.160275	7.809258
799.937000	151.966142	4.855605	5.076314	4.855605	1.103547	30.000000	0.000000	4.912796	89.406210	7.751066
799.947000	151.924301	4.861689	5.082675	4.861689	1.104929	30.000000	0.000000	4.912796	89.664442	7.508599
799.957000	151.843633	4.867773	5.089035	4.867773	1.106312	30.000000	0.000000	4.912796	89.885783	7.450407
799.967000	151.791748	4.876291	5.097941	4.876291	1.108248	30.000000	0.000000	4.937133	90.107125	7.353420
799.977000	151.718451	4.887243	5.109390	4.887243	1.110737	30.000000	0.000000	4.961470	90.328466	7.304927
799.987000	151.647069	4.903062	5.125928	4.903062	1.114332	30.000000	0.000000	4.973639	90.537511	7.169146
799.997000	151.594993	4.920097	5.143738	4.920097	1.118204	30.000000	0.000000	5.022312	90.746556	7.072159
800.007000	151.594993	4.939567	5.164093	4.939567	1.122629	30.000000	0.000000	5.034481	90.955600	6.858788
800.017000	151.533828	4.957820	5.183175	4.957820	1.126777	30.000000	0.000000	5.046649	91.152348	6.946076
800.027000	151.533828	4.977289	5.203530	4.977289	1.131202	30.000000	0.000000	5.058818	91.324503	6.868487
800.037000	151.533828	4.993108	5.220068	4.993108	1.134797	30.000000	0.000000	5.070986	91.533547	6.761801
800.047000	151.185477	5.011361	5.239150	5.011361	1.138946	30.000000	0.000000	5.095323	91.693405	6.732705
800.057000	151.153142	5.028397	5.256960	5.028397	1.142817	30.000000	0.000000	5.083155	91.890153	6.664814
800.067000	151.094359	5.044216	5.273498	5.044216	1.146413	30.000000	0.000000	5.095323	92.062308	6.626020
800.077000	151.052721	5.053950	5.283675	5.053950	1.148625	30.000000	0.000000	5.058818	92.259056	6.635718
800.087000	151.000879	5.066119	5.296397	5.066119	1.151391	30.000000	0.000000	5.095323	92.455804	6.538732
800.097000	150.949041	5.072203	5.302758	5.072203	1.152773	30.000000	0.000000	5.083155	92.627958	6.480540
800.107000	150.900699	5.075854	5.306574	5.075854	1.153603	30.000000	0.000000	5.070986	92.861596	6.451443
800.117000	150.878589	5.075854	5.306574	5.075854	1.153603	30.000000	0.000000	5.046649	93.070641	6.422347
800.127000	150.848866	5.073420	5.304030	5.073420	1.153050	30.000000	0.000000	5.034481	93.279686	6.402950
800.137000	150.777242	5.072203	5.302758	5.072203	1.152773	30.000000	0.000000	5.058818	93.513324	6.383553
800.147000	150.757721	5.063685	5.293853	5.063685	1.150838	30.000000	0.000000	5.010144	93.746962	6.364155
800.157000	150.735618	5.052733	5.282403	5.052733	1.148349	30.000000	0.000000	4.973639	93.956007	6.354457
800.167000	150.696576	5.039348	5.268409	5.039348	1.145306	30.000000	0.000000	4.961470	94.214239	6.325361
800.177000	150.615025	5.024746	5.253144	5.024746	1.141988	30.000000	0.000000	4.912796	94.472470	6.335059
800.187000	150.573409	5.002843	5.230245	5.002843	1.137010	30.000000	0.000000	4.876291	94.730702	6.335059
800.197000	150.524161	4.973639	5.199713	4.973639	1.130372	30.000000	0.000000	4.791112	95.210275	6.315662
800.207000	150.524161	4.939567	5.164093	4.939567	1.122629	30.000000	0.000000	4.730270	95.407023	6.296265
800.217000	150.524161	4.904278	5.127200	4.904278	1.114609	30.000000	0.000000	4.693764	95.628365	6.267169
800.227000	150.524161	4.865339	5.086491	4.865339	1.105759	30.000000	0.000000	4.645091	95.775926	6.354457
800.237000	150.524161	4.821533	5.040694	4.821533	1.095803	30.000000	0.000000	4.620754	96.071048	6.335059
800.247000	150.192130	4.780160	4.997440	4.780160	1.086400	30.000000	0.000000	4.596417	96.280092	6.373854
800.257000	150.162403	4.741221	4.956731	4.741221	1.077550	30.000000	0.000000	4.584248	96.464544	6.393251
800.267000	150.091078	4.697415	4.910934	4.697415	1.067594	30.000000	0.000000	4.523406	96.624402	6.383553
800.277000	150.012450	4.658476	4.870225	4.658476	1.058744	30.000000	0.000000	4.523406	96.784259	6.412649
800.287000	149.960666	4.621970	4.832001	4.621970	1.050977	30.000000	0.000000	4.511238	96.919524	6.354457
800.297000	149.780659	4.592766	4.801199	4.592766	1.046742	30.000000	0.000000	4.499069	97.140865	6.412649
800.307000	149.731403	4.567212	4.774412	4.567212	1.041573	30.000000	0.000000	4.474732	97.140865	6.470841
800.317000	149.649909	4.546526	4.752665	4.546526	1.037935	30.000000	0.000000	4.486901	97.263833	6.538732
800.327000	149.528504	4.524623	4.729589	4.524623	1.034534	30.000000	0.000000	4.426058	97.337613	6.548430
800.337000	149.316298	4.514888	4.719100	4.514888	1.035100	30.000000	0.000000	4.523406	97.386800	6.616321
800.347000	149.264123	4.510021	4.713935	4.510021	1.034670	30.000000	0.000000	4.547743	97.423690	6.655116
800.357000	149.163122	4.503937	4.707427	4.503937	1.034600	30.000000	0.000000	4.523406	97.448284	6.761801
800.367000	148.940295	4.510021	4.713456	4.510021	1.038928	30.000000	0.000000	4.584248	97.448284	6.878185
800.377000	148.848653	4.519756	4.723494	4.519756	1.042379	30.000000	0.000000	4.620754	97.423690	6.936377
800.387000	148.787108	4.531924	4.736120	4.531924	1.045999	30.000000	0.000000	4.632922	97.399097	7.023665
800.397000	148.695473	4.546526	4.751243	4.546526	1.050585	30.000000	0.000000	4.645091	97.399097	7.081857
800.407000	148.492691	4.567212	4.772557	4.567212	1.058069	30.000000	0.000000	4.681596	97.325316	7.178844
800.417000	148.403507	4.590332	4.796582	4.590332	1.064620	30.000000	0.000000	4.718101	97.263833	7.178844
800.427000	148.403507	4.625621	4.833456	4.625621	1.072805	30.000000	0.000000	4.778943	97.214646	7.392215
800.437000	148.403507	4.654825	4.863973	4.654825	1.079578	30.000000	0.000000	4.815449	97.067085	7.450407
800.447000	148.230494	4.685246	4.895495	4.685246	1.089001	30.000000	0.000000	4.851954	96.931820	7.450407
800.457000	148.230494	4.714451	4.926009	4.714451	1.095789	30.000000	0.000000	4.815449	96.759666	7.586189
800.467000	148.230494	4.749739	4.962881	4.749739	1.103991	30.000000	0.000000	4.937133	96.538324	7.595887
800.477000	148.230494	4.786244	5.001025	4.786244	1.112476	30.000000	0.000000	4.985807	96.267796	7.624983
800.487000	147.168831	4.823967	5.038756	4.823967	1.136225	30.000000	0.000000	5.010144	95.984970	7.751066
800.497000	147.009299	4.868990	5.085528	4.868990	1.149104	30.000000	0.000000	5.095323	95.566881	7.624983
800.507000	146.846777	4.912796	5.131019	4.912796	1.161783	30.000000	0.000000	5.119660	95.210275	7.654079
800.517000	146.665396	4.960253	5.180288	4.960253	1.175643	30.000000	0.000000	5.192671	94.718405	7.683175
800.527000	146.402827	5.012578	5.234499	5.012578	1.191904	30.000000	0.000000	5.302187	94.189645	7.673477
800.537000	146.150433	5.061251	5.284906	5.061251	1.207227	30.000000	0.000000	5.302187	93.525621	7.595887
800.547000	145.843134	5.108708	5.333942	5.108708	1.223156	30.000000	0.000000	5.326524	92.677145	7.479503
800.557000	145.638133	5.156165	5.383142	5.156165	1.237624	30.000000	0.000000	5.290018	91.361393	7.101255
800.567000	145.354828	5.182936	5.410606	5.182936	1.248366	30.000000	0.000000	5.204839	89.738222	7.052761
800.577000	144.757694	5.196321	5.423553	5.196321	1.260722	30.000000	0.000000	5.119660	87.684666	6.839391
800.587000	144.487827	5.195104	5.421818	5.195104	1.264556	30.000000	0.000000	4.997975	85.495846	6.538732
800.597000	143.891726	5.173201	5.397937	5.173201	1.268317	30.000000	0.000000	4.876291	83.036497	6.402950
800.607000	143.218606	5.143997	5.366315	5.143997	1.271382	30.000000	0.000000	4.827617	80.392698	6.257470
800.617000	142.358986	5.098974	5.317888	5.098974	1.273220	30.000000	0.000000	4.742438	77.589041	6.131387
800.627000	141.678887	5.041782	5.257098	5.041782	1.269100	30.000000	0.000000	4.730270	74.699308	6.170182
800.637000	141.145951	4.980940	5.192772	4.980940	1.261662	30.000000	0.000000	4.693764	71.735795	6.024702
800.647000	140.791345	4.918881	5.127491	4.918881	1.251123	30.000000	0.000000	4.705933	68.710798	6.102291
800.657000	139.694520	4.867773	5.072430	4.867773	1.254010	30.000000	0.000000	4.778943	62.734586	6.208977
800.667000	139.694520	4.825184	5.028050	4.825184	1.243038	30.000000	0.000000	4.778943	62.734586	6.208977
800.677000	139.111271	4.794762	4.995413	4.794762	1.243538	30.000000	0.000000	4.815449	59.869448	6.325361
800.687000	138.603277	4.797196	4.997131	4.797196	1.251444	30.000000	0.000000	5.022312	54.446591	6.519334
800.697000	138.216300	4.825184	5.025657	4.825184	1.264324	30.000000	0.000000	5.156165	51.974949	6.781198
800.707000	138.216300	4.865339	5.067481	4.865339	1.274846	30.000000	0.000000	5.229176	49.663164	6.878185
800.717000	138.216300	4.927398	5.132119	4.927398	1.291107	30.000000	0.000000	5.363029	47.621908	6.994569
800.727000	138.216300	4.999192	5.206896	4.999192	1.309919	30.000000	0.000000	5.448208	45.814290	7.004268
800.737000	138.216300	5.085588	5.296881	5.085588	1.332557	30.000000	0.000000	5.557724	44.228012	6.965473
800.747000	137.563550	5.174418	5.388265	5.174418	1.365937	30.000000	0.000000	5.594229	42.899966	6.994569
800.757000	137.684635	5.257163	5.474645	5.257163	1.385874	30.000000	0.000000	5.606398	41.830151	6.926679
800.767000	137.705801	5.339909	5.560851	5.339909	1.407349	30.000000	0.000000	5.606398	41.018567	6.819993
800.777000	137.744988	5.416570	5.640756	5.416570	1.426918	30.000000	0.000000	5.582061	40.342248	6.742404
800.787000	138.114486	5.468894	5.695925	5.468894	1.434658	30.000000	0.000000	5.545556	39.924159	6.635718
800.797000	138.206049	5.502966	5.731581	5.502966	1.442089	30.000000	0.000000	5.496882	39.629038	6.529033
800.807000	138.245235	5.516351	5.745595	5.516351	1.444951	30.000000	0.000000	5.363029	39.419993	6.267169
800.817000	138.276219	5.516351	5.745652	5.516351	1.444440	30.000000	0.000000	5.363029	39.419993	6.267169
800.827000	138.276219	5.502966	5.731711	5.502966	1.440935	30.000000	0.000000	5.314355	39.444587	6.034400
800.837000	138.266282	5.472545	5.700007	5.472545	1.433132	30.000000	0.000000	5.253513	39.518367	5.985907
800.847000	138.254893	5.423871	5.649289	5.423871	1.420570	30.000000	0.000000	5.107491	39.850379	5.685248
800.857000	138.244957	5.369113	5.592237	5.369113	1.406388	30.000000	0.000000	5.058818	40.096313	5.510672
800.867000	138.244957	5.305837	5.526332	5.305837	1.389813	30.000000	0.000000	4.973639	40.268467	5.345794
800.877000	138.225364	5.234043	5.451520	5.234043	1.371314	30.000000	0.000000	4.864123	40.538995	5.229410
800.887000	138.194308	5.158599	5.372887	5.158599	1.352027	30.000000	0.000000	4.791112	40.871007	5.122725
800.897000	138.161523	5.078287	5.289183	5.078287	1.331475	30.000000	0.000000	4.693764	41.203018	4.928751
800.907000	138.130271	5.004060	5.211820	5.004060	1.312481	30.000000	0.000000	4.620754	41.510436	4.860861
800.917000	138.109145	4.918881	5.123070	4.918881	1.290451	30.000000	0.000000	4.511238	41.867041	4.822066
800.927000	138.087834	4.833701	5.034320	4.833701	1.268412	30.000000	0.000000	4.462564	42.248240	4.666887
800.937000	138.076362	4.749739	4.946855	4.749739	1.246543	30.000000	0.000000	4.413890	42.617141	4.540804
800.947000	138.066704	4.673078	4.866997	4.673078	1.226558	30.000000	0.000000	4.340879	43.010636	4.414721
800.957000	138.055054	4.600067	4.790939	4.600067	1.207555	30.000000	0.000000	4.328711	43.391835	4.162556
800.967000	138.055054	4.533141	4.721235	4.533141	1.189986	30.000000	0.000000	4.304374	43.748440	4.143158
800.977000	137.981546	4.473515	4.659025	4.473515	1.175318	30.000000	0.000000	4.267869	44.129638	4.075268
800.987000	137.939107	4.418757	4.601933	4.418757	1.161492	30.000000	0.000000	4.243532	44.461650	3.978281
800.997000	137.886733	4.368867	4.549898	4.368867	1.149063	30.000000	0.000000	4.194858	44.781365	3.958884
801.007000	137.886733	4.325060	4.504276	4.325060	1.137541	30.000000	0.000000	4.182690	45.076486	3.968582
801.017000	137.886733	4.292206	4.470060	4.292206	1.128900	30.000000	0.000000	4.182690	45.334717	4.065569
801.027000	137.791922	4.258134	4.434441	4.258134	1.121147	30.000000	0.000000	4.121847	45.469981	4.230447
801.037000	137.791922	4.233797	4.409096	4.233797	1.114739	30.000000	0.000000	4.170521	45.703619	4.230447
801.047000	137.324951	4.214328	4.388158	4.214328	1.115504	30.000000	0.000000	4.146184	45.851180	4.405023
801.057000	137.207369	4.197292	4.370253	4.197292	1.112474	30.000000	0.000000	4.158353	45.961850	4.608695
801.067000	137.111013	4.186340	4.358714	4.186340	1.110780	30.000000	0.000000	4.194858	46.060224	4.860861
801.077000	137.052234	4.180256	4.352297	4.180256	1.109902	30.000000	0.000000	4.207026	46.183191	5.054834
801.087000	137.052234	4.179039	4.351030	4.179039	1.109579	30.000000	0.000000	4.231363	46.256972	5.413685
801.097000	136.915090	4.185123	4.357171	4.185123	1.112915	30.000000	0.000000	4.255700	46.367642	5.568864
801.107000	136.875908	4.196075	4.368518	4.196075	1.116320	30.000000	0.000000	4.292206	46.502906	6.082894
801.117000	136.836726	4.209460	4.382397	4.209460	1.120376	30.000000	0.000000	4.316542	46.613577	6.412649
801.127000	136.817136	4.228930	4.402639	4.228930	1.125806	30.000000	0.000000	4.316542	46.761137	6.819993
801.137000	136.756706	4.242315	4.416487	4.242315	1.130138	30.000000	0.000000	4.304374	46.920995	7.266132
801.147000	136.745404	4.264218	4.439274	4.264218	1.136118	30.000000	0.000000	4.365216	47.130039	7.673477
801.157000	136.735499	4.282471	4.458261	4.282471	1.141108	30.000000	0.000000	4.340879	47.375974	8.042026
801.167000	136.735499	4.294639	4.470929	4.294639	1.144350	30.000000	0.000000	4.316542	47.634205	8.507563
801.177000	136.725813	4.309241	4.486117	4.309241	1.148366	30.000000	0.000000	4.353048	48.212151	9.031291
801.187000	136.725813	4.321410	4.498785	4.321410	1.151609	30.000000	0.000000	4.353048	48.212151	9.031291
801.197000	136.725813	4.338446	4.516520	4.338446	1.156149	30.000000	0.000000	4.426058	48.888471	9.555020
801.207000	136.714245	4.349397	4.527904	4.349397	1.159218	30.000000	0.000000	4.401722	49.220482	9.748994
801.217000	136.714245	4.363999	4.543105	4.363999	1.163110	30.000000	0.000000	4.462564	49.564791	9.972063
801.227000	136.683355	4.378602	4.558261	4.378602	1.167408	30.000000	0.000000	4.462564	49.872209	9.962364
801.237000	136.662097	4.396854	4.577231	4.396854	1.172555	30.000000	0.000000	4.486901	50.241111	10.292119
801.247000	136.611403	4.410239	4.591090	4.410239	1.176795	30.000000	0.000000	4.499069	50.499342	10.408504
801.257000	136.549355	4.428492	4.609999	4.428492	1.182490	30.000000	0.000000	4.523406	50.794463	10.583080
801.267000	136.428533	4.441877	4.623751	4.441877	1.187675	30.000000	0.000000	4.450395	51.077288	10.738259
801.277000	136.369762	4.462564	4.645196	4.462564	1.193993	30.000000	0.000000	4.559911	51.335519	10.874040
801.287000	136.289702	4.482033	4.665342	4.482033	1.200280	30.000000	0.000000	4.547743	51.556860	10.903136
801.297000	136.190176	4.496635	4.680390	4.496635	1.205534	30.000000	0.000000	4.572080	51.765905	11.019520
801.307000	136.110103	4.520972	4.705599	4.520972	1.213146	30.000000	0.000000	4.645091	51.925762	10.893437
801.317000	135.950100	4.545309	4.730684	4.545309	1.221862	30.000000	0.000000	4.705933	52.085619	10.854643
801.327000	135.881451	4.574514	4.760973	4.574514	1.230656	30.000000	0.000000	4.754607	52.134806	10.757656
801.337000	135.760634	4.609802	4.797512	4.609802	1.241824	30.000000	0.000000	4.839786	52.220883	10.680066
801.347000	135.629940	4.645091	4.834032	4.645091	1.253155	30.000000	0.000000	4.851954	52.245477	10.486093
801.357000	135.520532	4.686463	4.876914	4.686463	1.265859	30.000000	0.000000	4.937133	52.245477	10.369709
801.367000	135.380128	4.740004	4.932406	4.740004	1.282323	30.000000	0.000000	4.985807	52.171697	10.107845
801.377000	135.269027	4.793546	4.987941	4.793546	1.298410	30.000000	0.000000	5.095323	52.048729	10.166037
801.387000	135.009319	4.856821	5.053356	4.856821	1.319347	30.000000	0.000000	5.180502	51.913465	9.942967
801.397000	134.909928	4.924965	5.124091	4.924965	1.339332	30.000000	0.000000	5.253513	51.815091	9.739295
801.407000	134.909928	4.989458	5.191191	4.989458	1.356871	30.000000	0.000000	5.290018	51.618344	9.622911
801.417000	134.798854	5.058818	5.263165	5.058818	1.377426	30.000000	0.000000	5.399534	51.433893	9.428937
801.427000	134.798854	5.134262	5.341657	5.134262	1.397968	30.000000	0.000000	5.509050	51.249442	9.205868
801.437000	134.798854	5.212140	5.422681	5.212140	1.419173	30.000000	0.000000	5.618566	51.028101	9.089484
801.447000	134.798854	5.296102	5.510035	5.296102	1.442034	30.000000	0.000000	5.691577	50.819057	8.798523
801.457000	134.637048	5.381282	5.598360	5.381282	1.467851	30.000000	0.000000	5.788924	50.610012	8.633646
801.467000	134.116076	5.468894	5.688541	5.468894	1.500342	30.000000	0.000000	5.861935	50.413265	8.497864
801.477000	134.003114	5.552857	5.775662	5.552857	1.525270	30.000000	0.000000	5.934946	50.167330	8.323288
801.487000	133.862766	5.628301	5.853866	5.628301	1.548378	30.000000	0.000000	5.934946	50.007473	8.197205
801.497000	133.821682	5.703745	5.932254	5.703745	1.569840	30.000000	0.000000	6.007957	49.823022	8.051725
801.507000	133.700906	5.774322	6.005422	5.774322	1.591371	30.000000	0.000000	5.995788	49.675461	7.712271
801.517000	133.668159	5.835165	6.068634	5.835165	1.608716	30.000000	0.000000	6.007957	49.540197	7.731669
801.527000	133.589878	5.888706	6.124161	5.888706	1.624870	30.000000	0.000000	6.044462	49.441823	7.547394
801.537000	133.508253	5.927645	6.164493	5.927645	1.637077	30.000000	0.000000	6.007957	49.208186	7.217639
801.547000	133.436375	5.959283	6.197249	5.959283	1.647109	30.000000	0.000000	6.007957	49.208186	7.217639
801.557000	133.395261	5.979969	6.218678	5.979969	1.653570	30.000000	0.000000	5.995788	49.134405	7.130351
801.567000	133.333206	5.992138	6.231206	5.992138	1.658058	30.000000	0.000000	5.983620	49.085218	6.897583
801.577000	133.121016	5.992138	6.230774	5.992138	1.661903	30.000000	0.000000	5.934946	48.974548	6.645417
801.587000	133.040746	5.986053	6.224284	5.986053	1.661669	30.000000	0.000000	5.874104	48.949954	6.470841
801.597000	132.939566	5.971451	6.208895	5.971451	1.659444	30.000000	0.000000	5.861935	48.888471	6.315662
801.607000	132.848144	5.951982	6.188466	5.951982	1.655680	30.000000	0.000000	5.801093	48.826987	6.189579
801.617000	132.797176	5.926428	6.161794	5.926428	1.649486	30.000000	0.000000	5.752419	48.728613	6.053798
801.627000	132.596147	5.893573	6.127231	5.893573	1.643929	30.000000	0.000000	5.715914	48.667130	5.918016
801.637000	132.535405	5.863152	6.095483	5.863152	1.636522	30.000000	0.000000	5.703745	48.544162	5.694947
801.647000	132.475420	5.825430	6.056147	5.825430	1.627051	30.000000	0.000000	5.630735	48.433492	5.772536
801.657000	132.354703	5.784057	6.012898	5.784057	1.617611	30.000000	0.000000	5.582061	48.298228	5.646453
801.667000	132.132028	5.741468	5.968188	5.741468	1.609575	30.000000	0.000000	5.557724	48.187557	5.568864
801.677000	132.030873	5.698878	5.923720	5.698878	1.599383	30.000000	0.000000	5.509050	48.003106	5.500973
801.687000	131.940753	5.662373	5.885600	5.662373	1.590686	30.000000	0.000000	5.509050	47.855546	5.423384
801.697000	131.718915	5.619783	5.840906	5.619783	1.582504	30.000000	0.000000	5.436040	47.658798	5.345794
801.707000	131.658122	5.579627	5.799055	5.579627	1.572225	30.000000	0.000000	5.399534	47.474347	5.384589
801.717000	131.609241	5.539471	5.757227	5.539471	1.561732	30.000000	0.000000	5.350860	47.326787	5.180917
801.727000	131.496180	5.496882	5.712751	5.496882	1.551612	30.000000	0.000000	5.290018	47.142336	5.161520
801.737000	131.334242	5.453075	5.666923	5.453075	1.541928	30.000000	0.000000	5.265681	46.957885	5.103327
801.747000	131.262442	5.416570	5.628853	5.416570	1.532787	30.000000	0.000000	5.265681	46.785731	5.074231
801.757000	131.180872	5.378848	5.589503	5.378848	1.523445	30.000000	0.000000	5.204839	46.650467	5.074231
801.767000	131.180872	5.341126	5.550303	5.341126	1.512761	30.000000	0.000000	5.180502	46.502906	5.054834
801.777000	131.180872	5.303403	5.511104	5.303403	1.502077	30.000000	0.000000	5.131828	46.392236	4.957847
801.787000	131.058025	5.260814	5.466626	5.260814	1.491978	30.000000	0.000000	5.083155	46.281565	5.064533
801.797000	131.058025	5.223092	5.427428	5.223092	1.481280	30.000000	0.000000	5.058818	46.158598	5.006341
801.807000	131.058025	5.184153	5.386965	5.184153	1.470237	30.000000	0.000000	5.010144	46.121708	4.996642
801.817000	130.681900	5.147647	5.348370	5.147647	1.465771	30.000000	0.000000	4.985807	46.060224	4.957847
801.827000	130.600348	5.112359	5.311563	5.112359	1.456991	30.000000	0.000000	4.937133	46.023334	4.889957
801.837000	130.568817	5.074637	5.272316	5.074637	1.446727	30.000000	0.000000	4.888459	45.998740	4.870559
801.847000	130.506807	5.034481	5.230489	5.034481	1.436229	30.000000	0.000000	4.864123	45.961850	4.938450
801.857000	130.406864	4.995542	5.189863	4.995542	1.426640	30.000000	0.000000	4.815449	45.961850	4.909354
801.867000	130.241512	4.954169	5.146601	4.954169	1.417319	30.000000	0.000000	4.766775	45.912663	4.948149
801.877000	130.190422	4.914013	5.104799	4.914013	1.406595	30.000000	0.000000	4.730270	45.912663	4.996642
801.887000	130.128417	4.879942	5.069301	4.879942	1.397764	30.000000	0.000000	4.742438	45.888070	5.025738
801.897000	130.047991	4.844653	5.032510	4.844653	1.388843	30.000000	0.000000	4.705933	45.838883	5.074231
801.907000	129.888322	4.814232	5.000646	4.814232	1.382464	30.000000	0.000000	4.705933	45.826586	5.074231
801.917000	129.804489	4.789895	4.975229	4.789895	1.376700	30.000000	0.000000	4.742438	45.777399	5.074231
801.927000	129.713232	4.767992	4.952329	4.767992	1.371731	30.000000	0.000000	4.718101	45.740509	5.229410
801.937000	129.671854	4.753390	4.937095	4.753390	1.368129	30.000000	0.000000	4.742438	45.691322	5.345794
801.947000	129.512225	4.746089	4.929252	4.746089	1.368338	30.000000	0.000000	4.791112	45.642135	5.733741
801.957000	129.470835	4.746089	4.929185	4.746089	1.368938	30.000000	0.000000	4.815449	45.642135	5.888920
801.967000	129.431783	4.749739	4.932913	4.749739	1.370556	30.000000	0.000000	4.803280	45.666729	6.102291
801.977000	129.390386	4.761908	4.945483	4.761908	1.374669	30.000000	0.000000	4.851954	45.691322	6.276867
801.987000	129.328400	4.774076	4.958019	4.774076	1.379085	30.000000	0.000000	4.864123	45.728212	6.393251
801.997000	129.299156	4.791112	4.975663	4.791112	1.384433	30.000000	0.000000	4.876291	45.826586	6.490238
802.007000	129.257750	4.811798	4.997078	4.811798	1.391019	30.000000	0.000000	4.912796	45.937257	6.606622
802.017000	129.237177	4.832485	5.018526	4.832485	1.397303	30.000000	0.000000	4.949302	46.084817	6.693910
802.027000	129.205574	4.859255	5.046275	4.859255	1.405512	30.000000	0.000000	4.985807	46.269268	6.703609
802.037000	129.186052	4.888459	5.076570	4.888459	1.414250	30.000000	0.000000	5.034481	46.466016	6.761801
802.047000	129.164163	4.912796	5.101807	4.912796	1.421619	30.000000	0.000000	5.034481	46.662763	6.742404
802.057000	129.143598	4.937133	5.127045	4.937133	1.428972	30.000000	0.000000	5.058818	46.847214	6.810295
802.067000	129.053333	4.963904	5.154692	4.963904	1.438088	30.000000	0.000000	5.070986	47.043962	6.810295
802.077000	129.020688	4.988241	5.179908	4.988241	1.445636	30.000000	0.000000	5.095323	47.277600	6.839391
802.087000	128.969456	5.013794	5.206356	5.013794	1.453826	30.000000	0.000000	5.119660	47.486644	6.839391
802.097000	128.888983	5.039348	5.232752	5.039348	1.462474	30.000000	0.000000	5.131828	47.658798	6.858788
802.107000	128.717309	5.066119	5.260251	5.066119	1.472901	30.000000	0.000000	5.180502	47.855546	6.858788
802.117000	128.717309	5.089239	5.284257	5.089239	1.479622	30.000000	0.000000	5.180502	47.978513	6.839391
802.127000	128.717309	5.111142	5.306999	5.111142	1.485990	30.000000	0.000000	5.204839	48.089184	6.819993
802.137000	128.717309	5.129395	5.325951	5.129395	1.491297	30.000000	0.000000	5.217007	48.162964	6.752102
802.147000	128.416327	5.150081	5.346898	5.150081	1.502050	30.000000	0.000000	5.241344	48.199854	6.771500
802.157000	128.176348	5.167117	5.364158	5.167117	1.510811	30.000000	0.000000	5.229176	48.212151	6.674513
802.167000	128.005689	5.182936	5.380276	5.182936	1.518143	30.000000	0.000000	5.229176	48.175261	6.674513
802.177000	127.895875	5.202405	5.400290	5.202405	1.525595	30.000000	0.000000	5.290018	48.113777	6.674513
802.187000	127.747206	5.223092	5.421496	5.223092	1.534039	30.000000	0.000000	5.326524	47.990810	6.655116
802.197000	127.569240	5.241344	5.440121	5.241344	1.542258	30.000000	0.000000	5.314355	47.880139	6.693910
802.207000	127.478922	5.254730	5.453850	5.254730	1.547650	30.000000	0.000000	5.314355	47.744875	6.732705
802.217000	127.388760	5.270549	5.470105	5.270549	1.553766	30.000000	0.000000	5.338692	47.560424	6.732705
802.227000	127.268378	5.281500	5.481252	5.281500	1.558944	30.000000	0.000000	5.314355	47.191523	6.732705
802.237000	127.136526	5.291235	5.491115	5.291235	1.563957	30.000000	0.000000	5.314355	47.191523	6.732705
802.247000	127.046367	5.303403	5.503578	5.303403	1.569020	30.000000	0.000000	5.363029	47.007072	6.645417
802.257000	126.926900	5.320439	5.521037	5.320439	1.576010	30.000000	0.000000	5.399534	46.810324	6.664814
802.267000	126.784490	5.333825	5.534665	5.333825	1.582306	30.000000	0.000000	5.363029	46.392236	6.616321
802.277000	126.742936	5.341126	5.542165	5.341126	1.585154	30.000000	0.000000	5.363029	46.232378	6.509636
802.287000	126.661560	5.343559	5.544540	5.343559	1.587211	30.000000	0.000000	5.350860	46.023334	6.422347
802.297000	126.587413	5.341126	5.541878	5.341126	1.587704	30.000000	0.000000	5.290018	45.863476	6.422347
802.307000	126.370861	5.342342	5.542741	5.342342	1.591620	30.000000	0.000000	5.326524	45.691322	6.364155
802.317000	126.290342	5.337475	5.537542	5.337475	1.591490	30.000000	0.000000	5.290018	45.556058	6.325361
802.327000	126.248760	5.330174	5.529891	5.330174	1.589994	30.000000	0.000000	5.241344	45.383904	6.238073
802.337000	126.186880	5.320439	5.519678	5.320439	1.588102	30.000000	0.000000	5.217007	45.260937	6.218675
802.347000	126.022355	5.303403	5.501703	5.303403	1.585700	30.000000	0.000000	5.192671	45.101079	6.160483
802.357000	125.928728	5.282717	5.480072	5.282717	1.581036	30.000000	0.000000	5.192671	44.978112	6.121688
802.367000	125.835101	5.259597	5.455918	5.259597	1.575631	30.000000	0.000000	5.131828	44.855145	6.131387
802.377000	125.773241	5.235260	5.430560	5.235260	1.569337	30.000000	0.000000	5.119660	44.719881	6.092592
802.387000	125.660938	5.207273	5.401326	5.207273	1.562747	30.000000	0.000000	5.070986	44.633804	6.053798
802.397000	125.579627	5.184153	5.377199	5.184153	1.557106	30.000000	0.000000	5.058818	44.510837	6.063496
802.407000	125.540713	5.154948	5.346838	5.154948	1.548952	30.000000	0.000000	5.034481	44.314089	6.073195
802.417000	125.438013	5.124527	5.315102	5.124527	1.541431	30.000000	0.000000	4.985807	44.326386	6.082894
802.427000	125.357474	5.095323	5.284670	5.095323	1.533910	30.000000	0.000000	4.949302	44.166528	6.073195
802.437000	125.147890	5.067336	5.255274	5.067336	1.528757	30.000000	0.000000	4.937133	44.043561	6.063496
802.447000	125.086800	5.036914	5.223618	5.036914	1.520527	30.000000	0.000000	4.888459	43.908297	6.063496
802.457000	125.027727	5.005277	5.190705	5.005277	1.511888	30.000000	0.000000	4.876291	43.773033	6.073195
802.467000	125.027727	4.978506	5.162943	4.978506	1.503801	30.000000	0.000000	4.864123	43.625473	6.053798
802.477000	125.027727	4.948085	5.131395	4.948085	1.494612	30.000000	0.000000	4.815449	43.514802	6.121688
802.487000	124.876515	4.922531	5.104636	4.922531	1.489188	30.000000	0.000000	4.815449	43.293461	6.141086
802.497000	124.876515	4.894544	5.075614	4.894544	1.480722	30.000000	0.000000	4.778943	43.096714	6.208977
802.507000	124.364582	4.861689	5.040680	4.861689	1.478461	30.000000	0.000000	4.705933	42.924559	6.267169
802.517000	124.232800	4.841002	5.019011	4.841002	1.474140	30.000000	0.000000	4.778943	42.764702	6.305963
802.527000	124.181543	4.823967	5.001263	4.823967	1.469716	30.000000	0.000000	4.778943	42.567954	6.451443
802.537000	124.072018	4.811798	4.988464	4.811798	1.467636	30.000000	0.000000	4.815449	42.383504	6.461142
802.547000	123.933896	4.808148	4.984449	4.808148	1.468574	30.000000	0.000000	4.851954	42.125272	6.538732
802.557000	123.843804	4.806931	4.983037	4.806931	1.469541	30.000000	0.000000	4.864123	42.100679	6.538732
802.567000	123.772843	4.810581	4.986702	4.810581	1.471712	30.000000	0.000000	4.900628	41.940822	6.606622
802.577000	123.734020	4.826400	5.003035	4.826400	1.477131	30.000000	0.000000	4.973639	41.854744	6.596924
802.587000	123.691678	4.841002	5.018101	4.841002	1.482234	30.000000	0.000000	4.961470	41.780964	6.684212
802.597000	123.630565	4.864123	5.041963	4.864123	1.490232	30.000000	0.000000	5.010144	41.707184	6.732705
802.607000	123.588228	4.895761	5.074686	4.895761	1.500566	30.000000	0.000000	5.022312	41.694887	6.674513
802.617000	123.556074	4.926182	5.106164	4.926182	1.510380	30.000000	0.000000	5.083155	41.744074	6.713308
802.627000	123.513739	4.959036	5.140146	4.959036	1.521103	30.000000	0.000000	5.107491	41.756371	6.703609
802.637000	123.481879	4.989458	5.171623	4.989458	1.530926	30.000000	0.000000	5.119660	41.805558	6.752102
802.647000	123.420142	5.010144	5.192957	5.010144	1.538230	30.000000	0.000000	5.058818	41.879338	6.703609
802.657000	123.378425	5.041782	5.225676	5.041782	1.548594	30.000000	0.000000	5.180502	41.953118	6.664814
802.667000	123.304232	5.068552	5.253292	5.068552	1.557980	30.000000	0.000000	5.168334	42.026899	6.655116
802.677000	123.210328	5.090456	5.275827	5.090456	1.566193	30.000000	0.000000	5.192671	42.125272	6.693910
802.687000	123.126279	5.118443	5.304684	5.118443	1.576135	30.000000	0.000000	5.241344	42.137569	6.645417
802.697000	123.045747	5.141563	5.328501	5.141563	1.584537	30.000000	0.000000	5.241344	42.309723	6.635718
802.707000	123.045747	5.164683	5.352462	5.164683	1.591662	30.000000	0.000000	5.253513	42.346613	6.596924
802.717000	122.839420	5.181719	5.369745	5.181719	1.600223	30.000000	0.000000	5.253513	42.420394	6.587225
802.727000	122.781240	5.196321	5.384772	5.196321	1.605670	30.000000	0.000000	5.253513	42.420394	6.587225
802.737000	122.700712	5.213357	5.402279	5.213357	1.612235	30.000000	0.000000	5.290018	42.444987	6.596924
802.747000	122.600798	5.231610	5.421011	5.231610	1.619499	30.000000	0.000000	5.241344	42.408097	6.519334
802.757000	122.349021	5.236477	5.425595	5.236477	1.625094	30.000000	0.000000	5.229176	42.272833	6.655116
802.767000	122.216865	5.242561	5.431657	5.242561	1.629132	30.000000	0.000000	5.229176	42.199053	6.742404
802.777000	122.123448	5.235260	5.423922	5.235260	1.628380	30.000000	0.000000	5.119660	42.063789	6.790897
802.787000	122.065323	5.227959	5.416252	5.227959	1.627052	30.000000	0.000000	5.168334	41.928525	6.868487
802.797000	121.932644	5.215791	5.403404	5.215791	1.625414	30.000000	0.000000	5.119660	41.768667	6.946076
802.807000	121.849076	5.202405	5.389385	5.202405	1.622592	30.000000	0.000000	5.119660	41.584217	7.091556
802.817000	121.849076	5.184153	5.370477	5.184153	1.616899	30.000000	0.000000	5.070986	41.375172	7.072159
802.827000	121.849076	5.164683	5.350307	5.164683	1.610827	30.000000	0.000000	5.058818	41.289095	7.207940
802.837000	121.655243	5.137913	5.322227	5.137913	1.605571	30.000000	0.000000	5.022312	41.104644	7.275831
802.847000	121.655243	5.113576	5.297017	5.113576	1.597965	30.000000	0.000000	4.997975	40.920194	7.295228
802.857000	121.260955	5.083155	5.264804	5.083155	1.594688	30.000000	0.000000	4.924965	40.797226	7.392215
802.867000	121.196239	5.051517	5.231921	5.051517	1.585780	30.000000	0.000000	4.912796	40.661962	7.460106
802.877000	121.082935	5.028397	5.207776	5.028397	1.580294	30.000000	0.000000	4.888459	40.563589	7.372818
802.887000	121.031233	4.995542	5.173659	4.995542	1.570772	30.000000	0.000000	4.839786	40.502105	7.605586
802.897000	120.989410	4.962687	5.139560	4.962687	1.561087	30.000000	0.000000	4.791112	40.403731	7.624983
802.907000	120.947162	4.924965	5.100421	4.924965	1.549868	30.000000	0.000000	4.742438	40.391434	7.654079
802.917000	120.905336	4.878725	5.052462	4.878725	1.535952	30.000000	0.000000	4.608585	40.379138	7.634682
802.927000	120.840611	4.833701	5.005726	4.833701	1.522751	30.000000	0.000000	4.608585	40.342248	7.673477
802.937000	120.756539	4.785028	4.955179	4.785028	1.508670	30.000000	0.000000	4.535574	40.391434	7.663778
802.947000	120.714705	4.730270	4.898405	4.730270	1.492021	30.000000	0.000000	4.450395	40.391434	7.799560
802.957000	120.582059	4.684030	4.850304	4.684030	1.479371	30.000000	0.000000	4.462564	40.391434	7.712271
802.967000	120.479037	4.634139	4.798475	4.634139	1.465101	30.000000	0.000000	4.413890	40.391434	7.751066
802.977000	120.426920	4.586682	4.749251	4.586682	1.450842	30.000000	0.000000	4.413890	40.366841	7.741367
802.987000	120.333783	4.548960	4.710043	4.548960	1.440230	30.000000	0.000000	4.462564	40.342248	7.721970
802.997000	120.239821	4.513671	4.673357	4.513671	1.430379	30.000000	0.000000	4.438227	40.354544	7.702573
803.007000	120.178636	4.480816	4.639244	4.480816	1.420822	30.000000	0.000000	4.413890	40.293061	7.692874
803.017000	120.075241	4.468648	4.626483	4.468648	1.418404	30.000000	0.000000	4.486901	40.280764	7.595887
803.027000	120.014056	4.460130	4.617568	4.460130	1.416552	30.000000	0.000000	4.523406	40.243874	7.799560
803.037000	119.939762	4.460130	4.617452	4.460130	1.417585	30.000000	0.000000	4.535574	40.170093	7.789861
803.047000	119.713988	4.475949	4.633475	4.475949	1.425766	30.000000	0.000000	4.608585	40.096313	7.780162
803.057000	119.633480	4.494202	4.652243	4.494202	1.432710	30.000000	0.000000	4.645091	40.034829	7.818957
803.067000	119.530103	4.520972	4.679791	4.520972	1.442703	30.000000	0.000000	4.681596	39.948752	7.789861
803.077000	119.427037	4.556261	4.716154	4.556261	1.455430	30.000000	0.000000	4.766775	39.887269	7.838354
803.087000	119.323963	4.592766	4.753774	4.592766	1.468570	30.000000	0.000000	4.827617	39.801192	7.818957
803.097000	119.249308	4.636573	4.798995	4.636573	1.483659	30.000000	0.000000	4.876291	39.752005	7.838354
803.107000	119.207419	4.690114	4.854343	4.690114	1.501405	30.000000	0.000000	4.949302	39.690521	7.848053
803.117000	119.168808	4.741221	4.907175	4.741221	1.518338	30.000000	0.000000	4.997975	39.653631	7.857752
803.127000	119.052256	4.797196	4.964913	4.797196	1.538011	30.000000	0.000000	5.083155	39.629038	7.848053
803.137000	118.991060	4.855605	5.025259	4.855605	1.557666	30.000000	0.000000	5.119660	39.629038	7.818957
803.147000	118.959067	4.911579	5.083134	4.911579	1.576114	30.000000	0.000000	5.168334	39.653631	7.760765
803.157000	118.907002	4.969988	5.143492	4.969988	1.595666	30.000000	0.000000	5.229176	39.665928	7.741367
803.167000	118.907002	5.034481	5.210236	5.034481	1.616372	30.000000	0.000000	5.326524	39.715115	7.634682
803.177000	118.907002	5.095323	5.273203	5.095323	1.635906	30.000000	0.000000	5.375197	39.801192	7.595887
803.187000	118.907002	5.151298	5.331132	5.151298	1.653877	30.000000	0.000000	5.387366	39.838082	7.537695
803.197000	118.845806	5.198755	5.380133	5.198755	1.670109	30.000000	0.000000	5.350860	39.850379	7.527997
803.207000	118.845806	5.243778	5.426728	5.243778	1.684572	30.000000	0.000000	5.399534	39.838082	7.527997
803.217000	118.845806	5.282717	5.467025	5.282717	1.697082	30.000000	0.000000	5.387366	39.874972	7.469805
803.227000	118.335840	5.313138	5.497554	5.313138	1.715333	30.000000	0.000000	5.387366	39.850379	7.431010
803.237000	118.274428	5.336258	5.521362	5.336258	1.723823	30.000000	0.000000	5.350860	39.739708	7.382516
803.247000	118.100746	5.352077	5.537402	5.352077	1.731845	30.000000	0.000000	5.326524	39.715115	7.382516
803.257000	118.010367	5.356945	5.542267	5.356945	1.734937	30.000000	0.000000	5.277850	39.665928	7.411612
803.267000	117.917158	5.347210	5.532020	5.347210	1.733346	30.000000	0.000000	5.229176	39.592147	7.508599
803.277000	117.846051	5.326524	5.510485	5.326524	1.727828	30.000000	0.000000	5.168334	39.506070	7.450407
803.287000	117.634024	5.300970	5.483653	5.300970	1.723063	30.000000	0.000000	5.131828	39.419993	7.615285
803.297000	117.634024	5.275416	5.457219	5.275416	1.714756	30.000000	0.000000	5.095323	39.272433	7.663778
803.307000	117.501728	5.237694	5.417952	5.237694	1.704668	30.000000	0.000000	5.022312	39.198652	7.760765
803.317000	117.421286	5.196321	5.375008	5.196321	1.692515	30.000000	0.000000	4.973639	39.026498	7.886848
803.327000	117.244179	5.147647	5.324339	5.147647	1.679522	30.000000	0.000000	4.900628	38.915828	7.886848
803.337000	117.153833	5.089239	5.263763	5.089239	1.661909	30.000000	0.000000	4.766775	38.817454	7.906245
803.347000	117.125263	5.035698	5.208335	5.035698	1.644876	30.000000	0.000000	4.791112	38.669893	7.915944
803.357000	117.064200	4.977289	5.147817	4.977289	1.626752	30.000000	0.000000	4.693764	38.645300	7.857752
803.367000	116.899873	4.917664	5.085863	4.917664	1.609803	30.000000	0.000000	4.632922	38.510036	7.915944
803.377000	116.829367	4.855605	5.021561	4.855605	1.590563	30.000000	0.000000	4.547743	38.387069	7.886848
803.387000	116.739641	4.791112	4.954712	4.791112	1.570788	30.000000	0.000000	4.486901	38.350178	7.906245
803.397000	116.632998	4.721752	4.882805	4.721752	1.549631	30.000000	0.000000	4.401722	38.251805	7.935341
803.407000	116.548994	4.663343	4.822266	4.663343	1.531693	30.000000	0.000000	4.438227	38.165728	7.915944
803.417000	116.487814	4.602501	4.759251	4.602501	1.512595	30.000000	0.000000	4.365216	38.091947	7.954738
803.427000	116.435942	4.547743	4.702544	4.547743	1.495341	30.000000	0.000000	4.353048	38.005870	7.925642
803.437000	116.336335	4.501503	4.654572	4.501503	1.481547	30.000000	0.000000	4.304374	37.907496	7.731669
803.447000	116.168472	4.455263	4.606495	4.455263	1.468682	30.000000	0.000000	4.328711	37.846013	7.974136
803.457000	116.088090	4.417541	4.567366	4.417541	1.457364	30.000000	0.000000	4.316542	37.723046	8.032328
803.467000	116.023351	4.384686	4.533297	4.384686	1.447419	30.000000	0.000000	4.304374	37.649265	8.051725
803.477000	115.962174	4.363999	4.511815	4.363999	1.441430	30.000000	0.000000	4.340879	37.575485	8.042026
803.487000	115.881801	4.356698	4.504143	4.356698	1.440122	30.000000	0.000000	4.413890	37.501705	8.071122
803.497000	115.807108	4.356698	4.504027	4.356698	1.441146	30.000000	0.000000	4.401722	37.440221	8.109917
803.507000	115.765131	4.359132	4.506478	4.359132	1.442528	30.000000	0.000000	4.462564	37.415628	8.197205
803.517000	115.684769	4.374951	4.522708	4.374951	1.448870	30.000000	0.000000	4.523406	37.403331	8.119616
803.527000	115.684769	4.398071	4.546609	4.398071	1.456527	30.000000	0.000000	4.584248	37.391034	8.168109
803.537000	115.684769	4.426058	4.575541	4.426058	1.465796	30.000000	0.000000	4.584248	37.391034	8.168109
803.547000	115.620001	4.460130	4.610661	4.460130	1.477990	30.000000	0.000000	4.669427	37.427924	8.265096
803.557000	115.620001	4.496635	4.648399	4.496635	1.490087	30.000000	0.000000	4.681596	37.452518	8.265096
803.567000	115.368105	4.541659	4.694536	4.541659	1.508613	30.000000	0.000000	4.754607	37.587782	8.177808
803.577000	115.335385	4.586682	4.741022	4.586682	1.524041	30.000000	0.000000	4.791112	37.673859	8.274795
803.587000	115.293397	4.629272	4.784975	4.629272	1.538806	30.000000	0.000000	4.839786	37.710749	8.274795
803.597000	115.251407	4.675512	4.832701	4.675512	1.554795	30.000000	0.000000	4.864123	37.846013	8.226301
803.607000	115.199498	4.712017	4.870347	4.712017	1.567706	30.000000	0.000000	4.827617	37.919793	8.206904
803.617000	115.134717	4.753390	4.913001	4.753390	1.582443	30.000000	0.000000	4.937133	38.005870	8.245699
803.627000	115.050766	4.793546	4.954362	4.793546	1.597081	30.000000	0.000000	4.985807	38.042760	8.265096
803.637000	114.924781	4.836135	4.998164	4.836135	1.613193	30.000000	0.000000	5.010144	38.091947	8.284493
803.647000	114.850085	4.872640	5.035764	4.872640	1.626519	30.000000	0.000000	5.034481	38.104244	8.206904
803.657000	114.746922	4.914013	5.078341	4.914013	1.641930	30.000000	0.000000	5.095323	38.153431	8.168109
803.667000	114.653680	4.954169	5.119676	4.954169	1.656806	30.000000	0.000000	5.156165	38.165728	8.177808
803.677000	114.592520	4.996759	5.163580	4.996759	1.672015	30.000000	0.000000	5.217007	38.079651	8.206904
803.687000	114.517748	5.038131	5.206200	5.038131	1.687049	30.000000	0.000000	5.253513	38.104244	8.216603
803.697000	114.353423	5.085588	5.254943	5.085588	1.705581	30.000000	0.000000	5.338692	38.042760	8.255397
803.707000	114.240337	5.143997	5.315090	5.143997	1.727009	30.000000	0.000000	5.411703	38.018167	8.177808
803.717000	114.169964	5.193887	5.366510	5.193887	1.744914	30.000000	0.000000	5.436040	37.932090	8.332987
803.727000	114.118035	5.238911	5.412933	5.238911	1.760900	30.000000	0.000000	5.436040	37.882903	8.323288
803.737000	113.992002	5.282717	5.457958	5.282717	1.777730	30.000000	0.000000	5.448208	37.809123	8.313589
803.747000	113.949989	5.319222	5.495595	5.319222	1.790722	30.000000	0.000000	5.399534	37.759936	8.352384
803.757000	113.888969	5.352077	5.529423	5.352077	1.802816	30.000000	0.000000	5.423871	37.710749	8.352384
803.767000	113.824075	5.375197	5.553185	5.375197	1.811708	30.000000	0.000000	5.387366	37.624672	8.391179
803.777000	113.659778	5.388583	5.566698	5.388583	1.819021	30.000000	0.000000	5.350860	37.587782	8.459070
803.787000	113.598641	5.393450	5.571609	5.393450	1.821708	30.000000	0.000000	5.302187	37.501705	8.391179
803.797000	113.537353	5.384932	5.562693	5.384932	1.819876	30.000000	0.000000	5.253513	37.464814	8.459070
803.807000	113.495335	5.364246	5.541243	5.364246	1.813599	30.000000	0.000000	5.204839	37.378737	8.497864
803.817000	113.308311	5.339909	5.515748	5.339909	1.808535	30.000000	0.000000	5.192671	37.341847	8.497864
803.827000	113.262487	5.303403	5.477954	5.303403	1.796941	30.000000	0.000000	5.070986	37.268067	8.517262
803.837000	113.211278	5.260814	5.433866	5.260814	1.783364	30.000000	0.000000	5.022312	37.194287	8.575454
803.847000	113.120937	5.214574	5.385937	5.214574	1.769183	30.000000	0.000000	4.937133	37.120506	8.449371
803.857000	112.960298	5.157382	5.326571	5.157382	1.752405	30.000000	0.000000	4.851954	37.071319	8.643344
803.867000	112.918273	5.098974	5.266170	5.098974	1.733239	30.000000	0.000000	4.803280	36.972946	8.623947
803.877000	112.876247	5.033264	5.198230	5.033264	1.711573	30.000000	0.000000	4.693764	36.923759	8.633646
803.887000	112.876247	4.961470	5.124083	4.961470	1.687160	30.000000	0.000000	4.584248	36.862275	8.682139
803.897000	112.876247	4.894544	5.054963	4.894544	1.664401	30.000000	0.000000	4.584248	36.800791	8.750030
803.907000	112.786873	4.823967	4.981919	4.823967	1.641769	30.000000	0.000000	4.499069	36.727011	8.808222
803.917000	112.786873	4.741221	4.896464	4.741221	1.613608	30.000000	0.000000	4.365216	36.604044	8.847017
803.927000	112.786873	4.665777	4.818550	4.665777	1.587931	30.000000	0.000000	4.316542	36.517967	8.895510
803.937000	112.223991	4.589116	4.738457	4.589116	1.570041	30.000000	0.000000	4.255700	36.444187	8.856715
803.947000	112.172813	4.518539	4.665500	4.518539	1.546630	30.000000	0.000000	4.231363	36.358110	8.827619
803.957000	112.036814	4.449179	4.593668	4.449179	1.524811	30.000000	0.000000	4.158353	36.321219	8.827619
803.967000	111.985372	4.384686	4.527000	4.384686	1.503425	30.000000	0.000000	4.158353	36.198252	8.817921
803.977000	111.882256	4.328711	4.469049	4.328711	1.485652	30.000000	0.000000	4.134016	36.149065	8.691838
803.987000	111.779145	4.284904	4.423664	4.284904	1.472022	30.000000	0.000000	4.146184	36.001505	8.866414
803.997000	111.708938	4.243532	4.380845	4.243532	1.458756	30.000000	0.000000	4.170521	35.952318	8.847017
804.007000	111.614671	4.210677	4.346786	4.210677	1.448725	30.000000	0.000000	4.170521	35.817054	8.847017
804.017000	111.520692	4.191207	4.326546	4.191207	1.443279	30.000000	0.000000	4.170521	35.755570	8.808222
804.027000	111.389443	4.182690	4.317556	4.182690	1.442093	30.000000	0.000000	4.231363	35.669493	8.827619
804.037000	111.347411	4.183906	4.318750	4.183906	1.443072	30.000000	0.000000	4.267869	35.583416	8.827619
804.047000	111.282368	4.191207	4.326188	4.191207	1.446458	30.000000	0.000000	4.304374	35.509636	8.914907
804.057000	111.240333	4.210677	4.346222	4.210677	1.453741	30.000000	0.000000	4.353048	35.472746	8.837318
804.067000	111.179278	4.233797	4.369993	4.233797	1.462547	30.000000	0.000000	4.389553	35.448152	8.876113
804.077000	111.114225	4.267869	4.405062	4.267869	1.475201	30.000000	0.000000	4.474732	35.423559	8.837318
804.087000	111.053173	4.305591	4.443902	4.305591	1.489077	30.000000	0.000000	4.523406	35.398965	8.798523
804.097000	110.979008	4.342096	4.481465	4.342096	1.502728	30.000000	0.000000	4.535574	35.411262	8.740331
804.107000	110.936972	4.382252	4.522844	4.382252	1.517212	30.000000	0.000000	4.572080	35.472746	8.653043
804.117000	110.891269	4.429709	4.571751	4.429709	1.534288	30.000000	0.000000	4.645091	35.521932	8.439672
804.127000	110.868240	4.472299	4.615669	4.472299	1.549367	30.000000	0.000000	4.657259	35.546526	8.488166
804.137000	110.733024	4.517322	4.661917	4.517322	1.566912	30.000000	0.000000	4.718101	35.583416	8.410576
804.147000	110.690985	4.564779	4.710824	4.564779	1.583985	30.000000	0.000000	4.778943	35.608009	8.332987
804.157000	110.620040	4.611019	4.758426	4.611019	1.601074	30.000000	0.000000	4.815449	35.644900	8.255397
804.167000	110.535963	4.656042	4.804748	4.656042	1.617955	30.000000	0.000000	4.839786	35.632603	8.206904
804.177000	110.358727	4.697415	4.847144	4.697415	1.634988	30.000000	0.000000	4.888459	35.620306	8.158411
804.187000	110.251594	4.740004	4.890909	4.740004	1.651432	30.000000	0.000000	4.949302	35.595713	8.255397
804.197000	110.129142	4.788678	4.940922	4.788678	1.670262	30.000000	0.000000	5.022312	35.558823	8.090520
804.207000	110.021993	4.838569	4.992212	4.838569	1.689319	30.000000	0.000000	5.070986	35.460449	8.148712
804.217000	109.984048	4.888459	5.043621	4.888459	1.707330	30.000000	0.000000	5.143997	35.435855	8.090520
804.227000	109.909873	4.943217	5.099985	4.943217	1.727626	30.000000	0.000000	5.204839	35.349778	8.071122
804.237000	109.909873	4.997975	5.156480	4.997975	1.746763	30.000000	0.000000	5.265681	35.288295	8.090520
804.247000	109.909873	5.053950	5.214230	5.053950	1.766326	30.000000	0.000000	5.338692	35.251405	8.100219
804.257000	109.819565	5.119660	5.281857	5.119660	1.790768	30.000000	0.000000	5.472545	35.140734	8.080821
804.267000	109.819565	5.187803	5.352159	5.187803	1.814604	30.000000	0.000000	5.521219	35.066954	8.051725
804.277000	109.500509	5.253513	5.419348	5.253513	1.842945	30.000000	0.000000	5.545556	35.066954	8.032328
804.287000	109.439059	5.318006	5.485759	5.318006	1.866614	30.000000	0.000000	5.594229	35.030064	8.080821
804.297000	109.382232	5.371547	5.540880	5.371547	1.886383	30.000000	0.000000	5.557724	35.042360	8.051725
804.307000	109.331154	5.420221	5.590988	5.420221	1.904362	30.000000	0.000000	5.557724	35.066954	8.090520
804.317000	109.307581	5.459160	5.631108	5.459160	1.918455	30.000000	0.000000	5.533387	35.079250	8.109917
804.327000	109.265542	5.485930	5.658639	5.485930	1.928600	30.000000	0.000000	5.472545	35.116141	8.022629
804.337000	109.185638	5.502966	5.676053	5.502966	1.935996	30.000000	0.000000	5.436040	35.128437	8.061424
804.347000	109.073117	5.505400	5.678340	5.505400	1.938835	30.000000	0.000000	5.363029	35.165328	8.061424
804.357000	108.965933	5.485930	5.658047	5.485930	1.933860	30.000000	0.000000	5.277850	35.202218	8.032328
804.367000	108.965933	5.457943	5.629182	5.457943	1.923994	30.000000	0.000000	5.241344	35.189921	8.071122
804.377000	108.829933	5.420221	5.590011	5.420221	1.913057	30.000000	0.000000	5.168334	35.177624	8.100219
804.387000	108.768471	5.370330	5.538439	5.370330	1.896505	30.000000	0.000000	5.095323	35.165328	8.139013
804.397000	108.684397	5.320439	5.486825	5.320439	1.880319	30.000000	0.000000	5.058818	35.103844	8.206904
804.407000	108.558288	5.262031	5.426351	5.262031	1.861803	30.000000	0.000000	4.973639	35.005470	8.226301
804.417000	108.432181	5.203622	5.365882	5.203622	1.843240	30.000000	0.000000	4.949302	34.980877	8.303891
804.427000	108.281001	5.142780	5.302862	5.142780	1.824181	30.000000	0.000000	4.864123	34.833316	8.381480
804.437000	108.177496	5.079504	5.237427	5.079504	1.803423	30.000000	0.000000	4.803280	34.710349	8.429974
804.447000	108.103317	5.019879	5.175814	5.019879	1.783448	30.000000	0.000000	4.766775	34.599678	8.497864
804.457000	108.019254	4.962687	5.116695	4.962687	1.764468	30.000000	0.000000	4.705933	34.464414	8.623947
804.467000	107.945076	4.905495	5.057597	4.905495	1.745301	30.000000	0.000000	4.669427	34.341447	8.691838
804.477000	107.841562	4.848304	4.998451	4.848304	1.726564	30.000000	0.000000	4.596417	34.181590	8.779126
804.487000	107.715470	4.793546	4.941779	4.793546	1.709004	30.000000	0.000000	4.547743	34.107809	8.808222
804.497000	107.663558	4.736354	4.882730	4.736354	1.689403	30.000000	0.000000	4.486901	34.034029	8.856715
804.507000	107.589382	4.682813	4.827409	4.682813	1.671421	30.000000	0.000000	4.438227	33.923359	8.895510
804.517000	107.534062	4.631705	4.774631	4.631705	1.654003	30.000000	0.000000	4.438227	33.837282	8.914907
804.527000	107.492032	4.584248	4.725640	4.584248	1.637675	30.000000	0.000000	4.389553	33.800391	8.905209
804.537000	107.453714	4.542876	4.682928	4.542876	1.623454	30.000000	0.000000	4.389553	33.763501	8.914907
804.547000	107.346477	4.501503	4.640106	4.501503	1.610220	30.000000	0.000000	4.353048	33.738908	8.885811
804.557000	107.284977	4.469865	4.607394	4.469865	1.599786	30.000000	0.000000	4.389553	33.714314	8.885811
804.567000	107.284977	4.441877	4.578546	4.441877	1.589770	30.000000	0.000000	4.389553	33.763501	8.885811
804.577000	107.224108	4.419974	4.555871	4.419974	1.582795	30.000000	0.000000	4.377385	33.751205	8.798523
804.587000	107.224108	4.404155	4.539566	4.404155	1.577130	30.000000	0.000000	4.389553	33.788095	8.691838
804.597000	107.162608	4.396854	4.531943	4.396854	1.575385	30.000000	0.000000	4.413890	33.800391	8.682139
804.607000	107.162608	4.398071	4.533197	4.398071	1.575821	30.000000	0.000000	4.450395	33.738908	8.672440
804.617000	107.162608	4.402938	4.538214	4.402938	1.577565	30.000000	0.000000	4.486901	33.812688	8.614248
804.627000	106.797053	4.413890	4.548918	4.413890	1.586679	30.000000	0.000000	4.499069	33.800391	8.536659
804.637000	106.755031	4.428492	4.563900	4.428492	1.592527	30.000000	0.000000	4.535574	33.788095	8.507563
804.647000	106.651502	4.454046	4.590068	4.454046	1.603201	30.000000	0.000000	4.608585	33.726611	8.449371
804.657000	106.577332	4.479600	4.616282	4.479600	1.613468	30.000000	0.000000	4.645091	33.689721	8.459070
804.667000	106.376411	4.512454	4.649811	4.512454	1.628222	30.000000	0.000000	4.718101	33.615941	8.342685
804.677000	106.325464	4.550177	4.688597	4.550177	1.642580	30.000000	0.000000	4.754607	33.579050	8.371781
804.687000	106.273579	4.590332	4.729889	4.590332	1.657843	30.000000	0.000000	4.791112	33.456083	8.352384
804.697000	106.170049	4.634139	4.774853	4.634139	1.675210	30.000000	0.000000	4.851954	33.443787	8.323288
804.707000	106.015589	4.675512	4.817220	4.675512	1.692494	30.000000	0.000000	4.864123	33.370006	8.303891
804.717000	105.973578	4.724185	4.867297	4.724185	1.710753	30.000000	0.000000	4.973639	33.320819	8.216603
804.727000	105.930837	4.776510	4.921133	4.776510	1.730360	30.000000	0.000000	5.022312	33.283929	8.148712
804.737000	105.879914	4.826400	4.972445	4.826400	1.749226	30.000000	0.000000	5.034481	33.222446	8.129315
804.747000	105.762048	4.875074	5.022383	4.875074	1.768720	30.000000	0.000000	5.095323	33.148665	8.158411
804.757000	105.682509	4.924965	5.073639	4.924965	1.788085	30.000000	0.000000	5.143997	33.222446	8.168109
804.767000	105.639751	4.971205	5.121198	4.971205	1.805559	30.000000	0.000000	5.180502	33.173259	8.100219
804.777000	105.602235	5.017445	5.168765	5.017445	1.822961	30.000000	0.000000	5.217007	33.148665	8.100219
804.787000	105.470957	5.062468	5.214905	5.062468	1.841464	30.000000	0.000000	5.241344	33.124072	8.042026
804.797000	105.391453	5.105058	5.258630	5.105058	1.858266	30.000000	0.000000	5.277850	33.136368	7.954738
804.807000	105.349450	5.146431	5.301168	5.146431	1.874024	30.000000	0.000000	5.277850	33.124072	7.906245
804.817000	105.293073	5.180502	5.336158	5.180502	1.887374	30.000000	0.000000	5.314355	33.124072	7.906245
804.827000	105.143799	5.206056	5.362198	5.206056	1.899194	30.000000	0.000000	5.277850	33.074885	7.896546
804.837000	105.101797	5.229176	5.385931	5.229176	1.908338	30.000000	0.000000	5.265681	33.062588	7.896546
804.847000	105.050922	5.241344	5.398368	5.241344	1.913641	30.000000	0.000000	5.217007	33.037995	7.935341
804.857000	104.952706	5.252296	5.409460	5.252296	1.919306	30.000000	0.000000	5.253513	33.001105	7.906245
804.867000	104.766000	5.251079	5.407850	5.251079	1.922031	30.000000	0.000000	5.168334	32.890434	7.945040
804.877000	104.709590	5.246212	5.402730	5.246212	1.921207	30.000000	0.000000	5.168334	32.890434	7.945040
804.887000	104.648059	5.234043	5.390082	5.234043	1.917792	30.000000	0.000000	5.119660	32.742873	8.042026
804.897000	104.572928	5.215791	5.371142	5.215791	1.912372	30.000000	0.000000	5.095323	32.767467	8.071122
804.907000	104.394270	5.185370	5.339478	5.185370	1.904216	30.000000	0.000000	4.973639	32.583016	8.197205
804.917000	104.290747	5.147647	5.300441	5.147647	1.892088	30.000000	0.000000	4.937133	32.496939	8.352384
804.927000	104.290747	5.105058	5.256587	5.105058	1.876434	30.000000	0.000000	4.851954	32.447752	8.352384
804.937000	104.290747	5.057601	5.207722	5.057601	1.858990	30.000000	0.000000	4.791112	32.361675	8.400877
804.947000	104.290747	5.011361	5.160109	5.011361	1.841994	30.000000	0.000000	4.754607	32.337082	8.459070
804.957000	104.290747	4.952952	5.099967	4.952952	1.820525	30.000000	0.000000	4.669427	32.251005	8.468768
804.967000	103.944157	4.896977	5.041712	4.896977	1.805448	30.000000	0.000000	4.608585	32.263301	8.507563
804.977000	103.897538	4.831268	4.973979	4.831268	1.781951	30.000000	0.000000	4.511238	32.226411	8.565755
804.987000	103.832243	4.770426	4.911226	4.770426	1.760520	30.000000	0.000000	4.511238	32.263301	8.594851
804.997000	103.800107	4.705933	4.844774	4.705933	1.737209	30.000000	0.000000	4.450395	32.238708	8.604550
805.007000	103.754373	4.653608	4.790829	4.653608	1.718583	30.000000	0.000000	4.450395	32.287895	8.565755
805.017000	103.684424	4.602501	4.738097	4.602501	1.700753	30.000000	0.000000	4.426058	32.287895	8.604550
805.027000	103.554736	4.557478	4.691532	4.557478	1.686032	30.000000	0.000000	4.401722	32.324785	8.556056
805.037000	103.502914	4.518539	4.651362	4.518539	1.672386	30.000000	0.000000	4.401722	32.373972	8.536659
805.047000	103.446421	4.480816	4.612439	4.480816	1.659245	30.000000	0.000000	4.377385	32.447752	8.507563
805.057000	103.404445	4.446745	4.577298	4.446745	1.647234	30.000000	0.000000	4.328711	32.472346	8.497864
805.067000	103.324615	4.422408	4.552118	4.422408	1.639364	30.000000	0.000000	4.365216	32.521532	8.459070
805.077000	103.260246	4.405372	4.534479	4.405372	1.633969	30.000000	0.000000	4.340879	32.533829	8.371781
805.087000	103.260246	4.388336	4.516944	4.388336	1.627651	30.000000	0.000000	4.340879	32.656796	8.362083
805.097000	103.166458	4.382252	4.510531	4.382252	1.626728	30.000000	0.000000	4.389553	32.669093	8.284493
805.107000	103.048388	4.374951	4.502828	4.374951	1.625695	30.000000	0.000000	4.377385	32.705983	8.226301
805.117000	103.006420	4.371300	4.499004	4.371300	1.624934	30.000000	0.000000	4.389553	32.705983	8.158411
805.127000	102.899148	4.376168	4.503842	4.376168	1.628268	30.000000	0.000000	4.450395	32.705983	8.139013
805.137000	102.763807	4.382252	4.509887	4.382252	1.632459	30.000000	0.000000	4.462564	32.718280	8.100219
805.147000	102.708247	4.393204	4.521068	4.393204	1.637332	30.000000	0.000000	4.486901	32.730577	8.032328
805.157000	102.633179	4.413890	4.542236	4.413890	1.646118	30.000000	0.000000	4.535574	32.644500	8.051725
805.167000	102.529651	4.430926	4.559599	4.430926	1.653963	30.000000	0.000000	4.535574	32.730577	7.993533
805.177000	102.469089	4.455263	4.584544	4.455263	1.663924	30.000000	0.000000	4.584248	32.718280	7.925642
805.187000	102.413619	4.486901	4.617009	4.486901	1.676550	30.000000	0.000000	4.657259	32.705983	7.925642
805.197000	102.305338	4.513671	4.644378	4.513671	1.688142	30.000000	0.000000	4.657259	32.742873	7.818957
805.207000	102.253543	4.546526	4.678098	4.546526	1.701196	30.000000	0.000000	4.705933	32.767467	7.799560
805.217000	102.207839	4.580598	4.713079	4.580598	1.714626	30.000000	0.000000	4.730270	32.779764	7.663778
805.227000	102.161112	4.612236	4.745553	4.612236	1.727170	30.000000	0.000000	4.766775	32.853544	7.644381
805.237000	102.114380	4.645091	4.779278	4.645091	1.740180	30.000000	0.000000	4.791112	32.841247	7.615285
805.247000	101.989568	4.677945	4.812868	4.677945	1.754388	30.000000	0.000000	4.815449	32.915028	7.557093
805.257000	101.955315	4.697415	4.832840	4.697415	1.762214	30.000000	0.000000	4.730270	32.951918	7.518298
805.267000	101.955315	4.729053	4.865390	4.729053	1.774083	30.000000	0.000000	4.851954	33.001105	7.460106
805.277000	101.800017	4.761908	4.898922	4.761908	1.788816	30.000000	0.000000	4.912796	33.037995	7.411612
805.287000	101.800017	4.785028	4.922707	4.785028	1.797501	30.000000	0.000000	4.888459	33.037995	7.334023
805.297000	101.800017	4.813015	4.951500	4.813015	1.808015	30.000000	0.000000	4.937133	33.001105	7.304927
805.307000	101.800017	4.842219	4.981544	4.842219	1.818985	30.000000	0.000000	4.997975	33.111775	7.295228
805.317000	101.554972	4.879942	5.019914	4.879942	1.837051	30.000000	0.000000	5.107491	33.074885	7.275831
805.327000	101.395947	4.914013	5.054676	4.914013	1.852424	30.000000	0.000000	5.107491	33.074885	7.275831
805.337000	101.317073	4.943217	5.084574	4.943217	1.864705	30.000000	0.000000	5.083155	33.099478	7.256434
805.347000	101.228361	4.972422	5.114451	4.972422	1.877160	30.000000	0.000000	5.107491	33.099478	7.198242
805.357000	101.176597	5.018662	5.161917	5.018662	1.895463	30.000000	0.000000	5.192671	33.124072	7.285530
805.367000	101.082941	5.055167	5.199291	5.055167	1.910795	30.000000	0.000000	5.217007	33.124072	7.304927
805.377000	101.041018	5.084371	5.229250	5.084371	1.922529	30.000000	0.000000	5.204839	33.160962	7.295228
805.387000	100.985531	5.111142	5.256679	5.111142	1.933577	30.000000	0.000000	5.156165	33.197852	7.314626
805.397000	100.920213	5.140346	5.286592	5.140346	1.945721	30.000000	0.000000	5.229176	33.210149	7.295228
805.407000	100.878295	5.161033	5.307787	5.161033	1.954258	30.000000	0.000000	5.204839	33.259336	7.217639
805.417000	100.835249	5.171984	5.318968	5.171984	1.959131	30.000000	0.000000	5.217007	33.296226	7.285530
805.427000	100.802017	5.180502	5.327665	5.180502	1.962920	30.000000	0.000000	5.192671	33.283929	7.178844
805.437000	100.717048	5.187803	5.335012	5.187803	1.967125	30.000000	0.000000	5.156165	33.308523	7.178844
805.447000	100.613572	5.192671	5.339820	5.192671	1.970726	30.000000	0.000000	5.156165	33.296226	7.198242
805.457000	100.505188	5.184153	5.330854	5.184153	1.969328	30.000000	0.000000	5.107491	33.247039	7.198242
805.467000	100.393053	5.167117	5.313124	5.167117	1.964750	30.000000	0.000000	5.046649	33.197852	7.237036
805.477000	100.194812	5.148864	5.293980	5.148864	1.961146	30.000000	0.000000	5.022312	33.124072	7.304927
805.487000	100.086416	5.129395	5.273758	5.129395	1.955548	30.000000	0.000000	4.961470	33.001105	7.207940
805.497000	99.991625	5.100190	5.243554	5.100190	1.945995	30.000000	0.000000	4.937133	32.915028	7.431010
805.507000	99.991625	5.068552	5.211026	5.068552	1.933924	30.000000	0.000000	4.888459	32.792060	7.450407
805.517000	99.804418	5.032047	5.173148	5.032047	1.923077	30.000000	0.000000	4.851954	32.730577	7.518298
805.527000	99.714460	4.987024	5.126697	4.987024	1.907339	30.000000	0.000000	4.742438	32.656796	7.595887
805.537000	99.662767	4.950519	5.089076	4.950519	1.894215	30.000000	0.000000	4.791112	32.546126	7.644381
805.547000	99.620887	4.905495	5.042717	4.905495	1.877660	30.000000	0.000000	4.705933	32.521532	7.702573
805.557000	99.500067	4.855605	4.991214	4.855605	1.860485	30.000000	0.000000	4.608585	32.447752	7.789861
805.567000	99.453187	4.809365	4.943600	4.809365	1.843506	30.000000	0.000000	4.584248	32.410862	7.702573
805.577000	99.397679	4.759474	4.892219	4.759474	1.825247	30.000000	0.000000	4.523406	32.386268	7.741367
805.587000	99.397679	4.710800	4.842188	4.710800	1.806581	30.000000	0.000000	4.474732	32.361675	7.751066
805.597000	99.280689	4.662126	4.791956	4.662126	1.789701	30.000000	0.000000	4.450395	32.373972	7.721970
805.607000	99.255995	4.612236	4.740634	4.612236	1.770923	30.000000	0.000000	4.389553	32.349378	7.780162
805.617000	99.195706	4.565996	4.693005	4.565996	1.754070	30.000000	0.000000	4.389553	32.398565	7.799560
805.627000	99.195706	4.530707	4.656735	4.530707	1.740514	30.000000	0.000000	4.389553	32.386268	7.702573
805.637000	99.195706	4.486901	4.611710	4.486901	1.723685	30.000000	0.000000	4.353048	32.435455	7.857752
805.647000	99.095882	4.451612	4.575276	4.451612	1.711585	30.000000	0.000000	4.353048	32.410862	7.867450
805.657000	99.095882	4.426058	4.549013	4.426058	1.701760	30.000000	0.000000	4.353048	32.447752	7.828656
805.667000	98.752380	4.400505	4.522192	4.400505	1.696892	30.000000	0.000000	4.328711	32.509236	7.857752
805.677000	98.667394	4.385903	4.507048	4.385903	1.692485	30.000000	0.000000	4.377385	32.509236	7.915944
805.687000	98.629334	4.376168	4.496983	4.376168	1.689275	30.000000	0.000000	4.377385	32.509236	7.915944
805.697000	98.554237	4.370084	4.490610	4.370084	1.688003	30.000000	0.000000	4.389553	32.460049	8.003232
805.707000	98.479046	4.372517	4.492989	4.372517	1.690022	30.000000	0.000000	4.413890	32.460049	7.983834
805.717000	98.269831	4.382252	4.502654	4.382252	1.696796	30.000000	0.000000	4.486901	32.337082	8.042026
805.727000	98.198540	4.394421	4.515041	4.394421	1.702536	30.000000	0.000000	4.511238	32.263301	8.051725
805.737000	98.123456	4.416324	4.537423	4.416324	1.712112	30.000000	0.000000	4.572080	32.189521	8.032328
805.747000	98.080303	4.444311	4.566107	4.444311	1.723592	30.000000	0.000000	4.632922	32.066554	8.061424
805.757000	97.995324	4.478383	4.600972	4.478383	1.738056	30.000000	0.000000	4.693764	31.943587	8.139013
805.767000	97.750290	4.518539	4.641818	4.518539	1.757281	30.000000	0.000000	4.730270	31.820619	8.129315
805.777000	97.703316	4.557478	4.681740	4.557478	1.773129	30.000000	0.000000	4.766775	31.722246	8.168109
805.787000	97.619699	4.602501	4.727848	4.602501	1.791911	30.000000	0.000000	4.827617	31.574685	8.187507
805.797000	97.449750	4.648741	4.775055	4.648741	1.812514	30.000000	0.000000	4.851954	31.439421	8.245699
805.807000	97.392992	4.694981	4.822453	4.694981	1.831420	30.000000	0.000000	4.876291	31.353344	8.245699
805.817000	97.317785	4.738788	4.867317	4.738788	1.849681	30.000000	0.000000	4.924965	31.242673	8.255397
805.827000	97.284519	4.781377	4.911003	4.781377	1.866828	30.000000	0.000000	4.937133	31.144300	8.265096
805.837000	97.163709	4.822750	4.953282	4.822750	1.884900	30.000000	0.000000	4.985807	31.082816	8.236000
805.847000	97.106942	4.860472	4.991923	4.860472	1.900552	30.000000	0.000000	5.010144	30.959849	8.236000
805.857000	97.041655	4.895761	5.028047	4.895761	1.915404	30.000000	0.000000	5.046649	30.959849	8.197205
805.867000	97.008227	4.927398	5.060479	4.927398	1.928324	30.000000	0.000000	5.046649	30.910662	8.119616
805.877000	96.876931	4.959036	5.092730	4.959036	1.942851	30.000000	0.000000	5.083155	30.849178	8.042026
805.887000	96.842242	4.985807	5.120159	4.985807	1.953909	30.000000	0.000000	5.095323	30.787695	7.974136
805.897000	96.780775	5.012578	5.147536	5.012578	1.965416	30.000000	0.000000	5.119660	30.738508	7.954738
805.907000	96.610832	5.042999	5.178459	5.042999	1.980170	30.000000	0.000000	5.180502	30.603244	7.925642
805.917000	96.540880	5.074637	5.210815	5.074637	1.993764	30.000000	0.000000	5.241344	30.554057	7.925642
805.927000	96.333674	5.105058	5.241660	5.105058	2.009206	30.000000	0.000000	5.241344	30.357310	7.925642
805.937000	96.248709	5.135479	5.272733	5.135479	2.022618	30.000000	0.000000	5.290018	30.234342	7.906245
805.947000	96.153792	5.153732	5.291292	5.153732	2.031422	30.000000	0.000000	5.192671	30.099078	7.838354
805.957000	96.032395	5.180502	5.318544	5.180502	2.044051	30.000000	0.000000	5.314355	29.914628	7.838354
805.967000	95.904224	5.206056	5.344531	5.206056	2.056337	30.000000	0.000000	5.302187	29.730177	7.886848
805.977000	95.904224	5.226742	5.365767	5.226742	2.064508	30.000000	0.000000	5.290018	29.558023	7.906245
805.987000	95.904224	5.244995	5.384506	5.244995	2.071718	30.000000	0.000000	5.277850	29.336682	7.877149
805.997000	95.904224	5.260814	5.400745	5.260814	2.077966	30.000000	0.000000	5.277850	29.250605	7.925642
806.007000	95.431392	5.268115	5.407315	5.268115	2.089083	30.000000	0.000000	5.253513	29.053857	7.906245
806.017000	95.395050	5.271765	5.410991	5.271765	2.091165	30.000000	0.000000	5.277850	28.894000	7.896546
806.027000	95.229036	5.266898	5.405670	5.266898	2.092126	30.000000	0.000000	5.192671	28.574285	7.945040
806.037000	95.151011	5.253513	5.391779	5.253513	2.088166	30.000000	0.000000	5.156165	28.389834	7.867450
806.047000	95.079914	5.244995	5.382898	5.244995	2.086014	30.000000	0.000000	5.107491	28.266867	8.061424
806.057000	95.046387	5.219441	5.356608	5.219441	2.076431	30.000000	0.000000	5.058818	28.094713	8.090520
806.067000	94.976852	5.193887	5.330248	5.193887	2.067460	30.000000	0.000000	5.046649	27.971746	8.158411
806.077000	94.919777	5.156165	5.291426	5.156165	2.053419	30.000000	0.000000	4.912796	27.848779	8.139013
806.087000	94.783481	5.123310	5.257449	5.123310	2.042648	30.000000	0.000000	4.949302	27.750405	8.197205
806.097000	94.698572	5.081938	5.214832	5.081938	2.027582	30.000000	0.000000	4.864123	27.639734	8.216603
806.107000	94.655330	5.041782	5.173545	5.041782	2.012283	30.000000	0.000000	4.851954	27.553657	8.313589
806.117000	94.564983	4.993108	5.123431	4.993108	1.994351	30.000000	0.000000	4.791112	27.418393	8.245699
806.127000	94.434558	4.951735	5.080738	4.951735	1.979967	30.000000	0.000000	4.778943	27.344613	8.284493
806.137000	94.335793	4.907929	5.035610	4.907929	1.964058	30.000000	0.000000	4.718101	27.209349	8.255397
806.147000	94.227334	4.865339	4.991715	4.865339	1.948764	30.000000	0.000000	4.681596	27.135569	8.274795
806.157000	94.075615	4.817882	4.942753	4.817882	1.932181	30.000000	0.000000	4.584248	27.049492	8.274795
806.167000	94.008790	4.771642	4.895196	4.771642	1.914695	30.000000	0.000000	4.584248	26.963415	8.245699
806.177000	93.949083	4.733920	4.856391	4.733920	1.900496	30.000000	0.000000	4.535574	26.815854	8.129315
806.187000	93.838992	4.691331	4.812507	4.691331	1.885112	30.000000	0.000000	4.523406	26.680590	8.265096
806.197000	93.722157	4.657259	4.777352	4.657259	1.873228	30.000000	0.000000	4.523406	26.557623	8.177808
806.207000	93.594001	4.625621	4.744677	4.625621	1.862472	30.000000	0.000000	4.535574	26.422359	8.197205
806.217000	93.471377	4.601284	4.719503	4.601284	1.854547	30.000000	0.000000	4.547743	26.287095	8.177808
806.227000	93.384835	4.581815	4.699385	4.581815	1.848018	30.000000	0.000000	4.584248	26.102644	8.148712
806.237000	93.272276	4.569646	4.686712	4.569646	1.844820	30.000000	0.000000	4.596417	25.979677	8.168109
806.247000	93.118882	4.567212	4.683954	4.567212	1.846167	30.000000	0.000000	4.657259	25.819820	8.226301
806.257000	93.077298	4.574514	4.691371	4.574514	1.849751	30.000000	0.000000	4.657259	25.672259	8.158411
806.267000	93.000399	4.586682	4.703718	4.586682	1.855845	30.000000	0.000000	4.705933	25.573885	8.090520
806.277000	92.972742	4.607368	4.724885	4.607368	1.864639	30.000000	0.000000	4.742438	25.426325	8.051725
806.287000	92.821035	4.636573	4.754571	4.636573	1.878798	30.000000	0.000000	4.815449	25.254171	7.964437
806.297000	92.821035	4.665777	4.784518	4.665777	1.890632	30.000000	0.000000	4.815449	25.254171	7.964437
806.307000	92.740070	4.694981	4.814324	4.694981	1.903732	30.000000	0.000000	4.827617	25.118907	7.925642
806.317000	92.678812	4.733920	4.854144	4.733920	1.920486	30.000000	0.000000	4.937133	24.959049	7.838354
806.327000	92.678812	4.772859	4.894072	4.772859	1.936283	30.000000	0.000000	4.973639	24.897566	7.741367
806.337000	92.678812	4.811798	4.934000	4.811798	1.952080	30.000000	0.000000	4.985807	24.823785	7.644381
806.347000	92.678812	4.847087	4.970184	4.847087	1.966396	30.000000	0.000000	5.010144	24.737708	7.557093
806.357000	92.587052	4.883592	5.007449	4.883592	1.982698	30.000000	0.000000	5.022312	24.651631	7.489202
806.367000	92.125915	4.921314	5.045278	4.921314	2.005575	30.000000	0.000000	5.083155	24.553258	7.421311
806.377000	92.125915	4.960253	5.085198	4.960253	2.021443	30.000000	0.000000	5.131828	24.454884	7.382516
806.387000	91.929587	4.996759	5.122255	4.996759	2.039592	30.000000	0.000000	5.180502	24.356510	7.304927
806.397000	91.797529	5.036914	5.163170	5.036914	2.058202	30.000000	0.000000	5.217007	24.208949	7.285530
806.407000	91.730643	5.079504	5.206699	5.079504	2.076738	30.000000	0.000000	5.253513	24.098279	7.304927
806.417000	91.645847	5.117226	5.245203	5.117226	2.093609	30.000000	0.000000	5.314355	24.012202	7.266132
806.427000	91.508165	5.152515	5.281108	5.152515	2.110415	30.000000	0.000000	5.326524	23.913828	7.275831
806.437000	91.443076	5.185370	5.314656	5.185370	2.124999	30.000000	0.000000	5.314355	23.815454	7.227338
806.447000	91.376178	5.218224	5.348199	5.218224	2.139629	30.000000	0.000000	5.338692	23.753971	7.169146
806.457000	91.301480	5.247429	5.377984	5.247429	2.152913	30.000000	0.000000	5.314355	23.667894	7.149748
806.467000	91.233225	5.265681	5.396555	5.265681	2.161602	30.000000	0.000000	5.265681	23.581817	7.081857
806.477000	91.189922	5.276633	5.407693	5.276633	2.166861	30.000000	0.000000	5.241344	23.520333	7.043063
806.487000	91.105146	5.281500	5.412513	5.281500	2.170356	30.000000	0.000000	5.229176	23.421959	7.013967
806.497000	90.957817	5.277850	5.408480	5.277850	2.171456	30.000000	0.000000	5.180502	23.348179	7.013967
806.507000	90.910608	5.266898	5.397164	5.266898	2.167781	30.000000	0.000000	5.143997	23.237509	6.984871
806.517000	90.820084	5.246212	5.375787	5.246212	2.160855	30.000000	0.000000	5.107491	23.139135	7.033364
806.527000	90.706008	5.221875	5.350625	5.221875	2.152824	30.000000	0.000000	5.083155	23.040761	7.013967
806.537000	90.587543	5.192671	5.320470	5.192671	2.142842	30.000000	0.000000	5.022312	22.893200	7.023665
806.547000	90.526403	5.157382	5.284194	5.157382	2.129335	30.000000	0.000000	4.985807	22.831717	7.062460
806.557000	90.467707	5.122094	5.247925	5.122094	2.115771	30.000000	0.000000	4.961470	22.696453	7.052761
806.567000	90.246699	5.088022	5.212593	5.088022	2.105462	30.000000	0.000000	4.924965	22.610376	7.062460
806.577000	90.179774	5.051517	5.175066	5.051517	2.091489	30.000000	0.000000	4.876291	22.475112	7.091556
806.587000	90.075352	5.015011	5.137471	5.015011	2.078129	30.000000	0.000000	4.864123	22.364442	7.081857
806.597000	90.023832	4.978506	5.099978	4.978506	2.063861	30.000000	0.000000	4.815449	22.241474	7.023665
806.607000	89.870822	4.939567	5.059500	4.939567	2.046127	30.000000	0.000000	4.754607	22.179991	7.091556
806.617000	89.817384	4.899411	5.018146	4.899411	2.028679	30.000000	0.000000	4.705933	22.020133	7.149748
806.627000	89.746730	4.858038	4.975478	4.858038	2.010480	30.000000	0.000000	4.669427	21.934056	7.110953
806.637000	89.665965	4.811798	4.927789	4.811798	1.990135	30.000000	0.000000	4.559911	21.823386	7.130351
806.647000	89.579345	4.775293	4.890052	4.775293	1.973750	30.000000	0.000000	4.620754	21.737309	7.072159
806.657000	89.478661	4.740004	4.853509	4.740004	1.957681	30.000000	0.000000	4.608585	21.638935	7.013967
806.667000	89.393986	4.708366	4.820774	4.708366	1.943375	30.000000	0.000000	4.608585	21.540561	7.072159
806.677000	89.393986	4.680379	4.792118	4.680379	1.931823	30.000000	0.000000	4.596417	21.442188	6.975172
806.687000	89.393986	4.654825	4.765955	4.654825	1.921276	30.000000	0.000000	4.608585	21.368407	6.907281
806.697000	89.303430	4.634139	4.744417	4.634139	1.911434	30.000000	0.000000	4.608585	21.368407	6.907281
806.707000	89.303430	4.619537	4.729468	4.619537	1.905411	30.000000	0.000000	4.608585	21.306924	6.878185
806.717000	89.303430	4.608585	4.718256	4.608585	1.900894	30.000000	0.000000	4.596417	21.245440	6.781198
806.727000	88.947378	4.602501	4.710633	4.602501	1.893297	30.000000	0.000000	4.608585	21.122473	6.548430
806.737000	88.819428	4.612236	4.720095	4.612236	1.895471	30.000000	0.000000	4.657259	21.060989	6.693910
806.747000	88.752489	4.614669	4.722324	4.614669	1.895513	30.000000	0.000000	4.645091	20.987209	6.645417
806.757000	88.642231	4.619537	4.726872	4.619537	1.895934	30.000000	0.000000	4.657259	20.913429	6.616321
806.767000	88.504406	4.619537	4.726332	4.619537	1.893961	30.000000	0.000000	4.608585	20.839648	6.558129
806.777000	88.429953	4.630488	4.737244	4.630488	1.897383	30.000000	0.000000	4.705933	20.765868	6.529033
806.787000	88.372538	4.642657	4.749467	4.642657	1.901543	30.000000	0.000000	4.730270	20.679791	6.499937
806.797000	88.290090	4.656042	4.762835	4.656042	1.905837	30.000000	0.000000	4.742438	20.569121	6.519334
806.807000	88.100802	4.673078	4.779511	4.673078	1.910073	30.000000	0.000000	4.778943	20.519934	6.364155
806.817000	88.025730	4.694981	4.801615	4.694981	1.917935	30.000000	0.000000	4.815449	20.384670	6.383553
806.827000	87.925627	4.716884	4.823615	4.716884	1.925422	30.000000	0.000000	4.827617	20.310889	6.354457
806.837000	87.849155	4.735137	4.841974	4.735137	1.931753	30.000000	0.000000	4.839786	20.200219	6.354457
806.847000	87.799819	4.757040	4.864173	4.757040	1.939963	30.000000	0.000000	4.864123	20.114142	6.335059
806.857000	87.650373	4.783811	4.890941	4.783811	1.948671	30.000000	0.000000	4.924965	20.040362	6.325361
806.867000	87.601022	4.816666	4.924331	4.816666	1.961320	30.000000	0.000000	4.937133	19.929691	6.228374
806.877000	87.540092	4.838569	4.946474	4.838569	1.969328	30.000000	0.000000	4.924965	19.892801	6.228374
806.887000	87.455542	4.856821	4.964787	4.856821	1.975489	30.000000	0.000000	4.912796	19.794427	6.208977
806.897000	87.329714	4.875074	4.982926	4.875074	1.981020	30.000000	0.000000	4.924965	19.782130	6.141086
806.907000	87.286387	4.893327	5.001404	4.893327	1.987783	30.000000	0.000000	4.961470	19.683757	6.092592
806.917000	87.205292	4.906712	5.014748	4.906712	1.991992	30.000000	0.000000	4.949302	19.646867	6.092592
806.927000	87.097127	4.917664	5.025492	4.917664	1.994798	30.000000	0.000000	4.937133	19.548493	6.044099
806.937000	86.973409	4.924965	5.032438	4.924965	1.995881	30.000000	0.000000	4.912796	19.474712	6.082894
806.947000	86.930081	4.933483	5.040962	4.933483	1.998674	30.000000	0.000000	4.949302	19.437822	5.966510
806.957000	86.844142	4.935916	5.043090	4.935916	1.998352	30.000000	0.000000	4.949302	19.327152	5.985907
806.967000	86.769130	4.935916	5.042778	4.935916	1.997211	30.000000	0.000000	4.937133	19.253372	5.927715
806.977000	86.666898	4.937133	5.043595	4.937133	1.996149	30.000000	0.000000	4.937133	19.204185	5.888920
806.987000	86.556611	4.937133	5.043136	4.937133	1.994472	30.000000	0.000000	4.912796	19.118108	5.840427
806.997000	86.439023	4.939567	5.045132	4.939567	1.993668	30.000000	0.000000	4.949302	19.032031	5.859824
807.007000	86.369886	4.939567	5.044845	4.939567	1.992617	30.000000	0.000000	4.961470	18.958250	5.888920
807.017000	86.369886	4.940784	5.046087	4.940784	1.993108	30.000000	0.000000	4.961470	18.847580	5.879222
807.027000	86.285422	4.943217	5.048221	4.943217	1.992805	30.000000	0.000000	4.961470	18.773799	5.927715
807.037000	86.285422	4.948085	5.053192	4.948085	1.994767	30.000000	0.000000	4.961470	18.663129	5.937414
807.047000	86.285422	4.951735	5.056920	4.951735	1.996239	30.000000	0.000000	4.985807	18.613942	5.927715
807.057000	86.125672	4.948085	5.052526	4.948085	1.992336	30.000000	0.000000	4.912796	18.515568	5.956811
807.067000	86.125672	4.948085	5.052526	4.948085	1.992336	30.000000	0.000000	4.937133	18.466382	5.995606
807.077000	85.787675	4.946868	5.049876	4.946868	1.986709	30.000000	0.000000	4.924965	18.404898	5.956811
807.087000	85.746578	4.946868	5.049705	4.946868	1.986085	30.000000	0.000000	4.912796	18.368008	5.947112
807.097000	85.697076	4.942001	5.044531	4.942001	1.983379	30.000000	0.000000	4.900628	18.257337	5.947112
807.107000	85.585331	4.934700	5.036615	4.934700	1.978756	30.000000	0.000000	4.888459	18.294227	5.937414
807.117000	85.552240	4.923748	5.025300	4.923748	1.973865	30.000000	0.000000	4.851954	18.245041	5.985907
807.127000	85.461640	4.916447	5.017474	4.916447	1.969571	30.000000	0.000000	4.888459	18.220447	6.015003
807.137000	85.361592	4.901845	5.002160	4.901845	1.962217	30.000000	0.000000	4.815449	18.146667	5.947112
807.147000	85.280441	4.884809	4.984443	4.884809	1.954182	30.000000	0.000000	4.815449	18.146667	5.947112
807.157000	85.181869	4.871424	4.970381	4.871424	1.947356	30.000000	0.000000	4.778943	18.097480	5.714344
807.167000	85.085786	4.851954	4.950125	4.851954	1.938144	30.000000	0.000000	4.742438	17.974513	5.830728
807.177000	85.085786	4.831268	4.929020	4.831268	1.929881	30.000000	0.000000	4.718101	17.888436	5.830728
807.187000	85.016548	4.806931	4.903912	4.806931	1.919139	30.000000	0.000000	4.669427	17.826952	5.840427
807.197000	84.720425	4.791112	4.886584	4.791112	1.908480	30.000000	0.000000	4.742438	17.716282	5.869523
807.207000	84.603888	4.772859	4.867501	4.772859	1.899507	30.000000	0.000000	4.705933	17.617908	5.869523
807.217000	84.503870	4.757040	4.850970	4.757040	1.891756	30.000000	0.000000	4.693764	17.531831	5.966510
807.227000	84.413278	4.737571	4.830756	4.737571	1.882701	30.000000	0.000000	4.693764	17.433457	5.927715
807.237000	84.334579	4.725402	4.818037	4.725402	1.876728	30.000000	0.000000	4.693764	17.371974	5.947112
807.247000	84.242355	4.712017	4.804026	4.712017	1.870084	30.000000	0.000000	4.681596	17.285896	5.859824
807.257000	84.116384	4.699849	4.791124	4.699849	1.863446	30.000000	0.000000	4.657259	17.187523	5.956811
807.267000	84.049436	4.688897	4.779697	4.688897	1.858145	30.000000	0.000000	4.632922	17.162929	5.840427
807.277000	83.990403	4.680379	4.770784	4.680379	1.853926	30.000000	0.000000	4.632922	17.052259	5.782235
807.287000	83.990403	4.674295	4.764582	4.674295	1.851516	30.000000	0.000000	4.608585	17.015369	5.704645
807.297000	83.824962	4.657259	4.746573	4.657259	1.842416	30.000000	0.000000	4.572080	16.830918	5.685248
807.307000	83.765921	4.643874	4.732702	4.643874	1.836284	30.000000	0.000000	4.572080	16.830918	5.685248
807.317000	83.679304	4.631705	4.719965	4.631705	1.830249	30.000000	0.000000	4.572080	16.781731	5.694947
807.327000	83.643893	4.617103	4.704948	4.617103	1.823980	30.000000	0.000000	4.547743	16.683357	5.714344
807.337000	83.480945	4.601284	4.688202	4.601284	1.815445	30.000000	0.000000	4.535574	16.560390	5.694947
807.347000	83.433670	4.587899	4.674383	4.587899	1.809502	30.000000	0.000000	4.547743	16.449720	5.665851
807.357000	83.352478	4.572080	4.657956	4.572080	1.802132	30.000000	0.000000	4.499069	16.351346	5.656152
807.367000	83.295822	4.558695	4.644104	4.558695	1.796069	30.000000	0.000000	4.499069	16.240675	5.724043
807.377000	83.202837	4.541659	4.626396	4.541659	1.788071	30.000000	0.000000	4.462564	16.228379	5.714344
807.387000	83.202837	4.527057	4.611522	4.527057	1.782322	30.000000	0.000000	4.462564	16.142302	5.714344
807.397000	83.202837	4.517322	4.601605	4.517322	1.778489	30.000000	0.000000	4.474732	16.068521	5.714344
807.407000	83.202837	4.506370	4.590450	4.506370	1.774178	30.000000	0.000000	4.462564	16.007038	5.743440
807.417000	83.202837	4.495419	4.579294	4.495419	1.769866	30.000000	0.000000	4.462564	15.933257	5.704645
807.427000	83.202837	4.484467	4.568138	4.484467	1.765554	30.000000	0.000000	4.438227	15.884071	5.733741
807.437000	83.109270	4.473515	4.556633	4.473515	1.759968	30.000000	0.000000	4.426058	15.871774	5.733741
807.447000	83.109270	4.461347	4.544238	4.461347	1.755181	30.000000	0.000000	4.426058	15.687323	5.791933
807.457000	83.109270	4.452829	4.535562	4.452829	1.751830	30.000000	0.000000	4.413890	15.662730	5.782235
807.467000	83.109270	4.440661	4.523167	4.440661	1.747042	30.000000	0.000000	4.377385	15.588949	5.782235
807.477000	83.109270	4.435793	4.518210	4.435793	1.745127	30.000000	0.000000	4.413890	15.490576	5.762837
807.487000	83.109270	4.428492	4.510773	4.428492	1.742255	30.000000	0.000000	4.389553	15.453685	5.733741
807.497000	83.109270	4.421191	4.503336	4.421191	1.739383	30.000000	0.000000	4.401722	15.404498	5.801632
807.507000	82.401894	4.411456	4.490821	4.411456	1.726063	30.000000	0.000000	4.365216	15.232344	5.762837
807.517000	82.401894	4.399288	4.478434	4.399288	1.721301	30.000000	0.000000	4.340879	15.256938	5.733741
807.527000	81.984418	4.385903	4.463286	4.385903	1.710506	30.000000	0.000000	4.304374	15.195454	5.791933
807.537000	81.803325	4.377385	4.453959	4.377385	1.704780	30.000000	0.000000	4.340879	15.109377	5.753139
807.547000	81.748171	4.362783	4.438901	4.362783	1.698363	30.000000	0.000000	4.280037	15.035597	5.733741
807.557000	81.671915	4.349397	4.425007	4.349397	1.692148	30.000000	0.000000	4.280037	14.949520	5.694947
807.567000	81.585348	4.338446	4.413554	4.338446	1.686749	30.000000	0.000000	4.267869	14.900333	5.539768
807.577000	81.500059	4.323844	4.398393	4.323844	1.679954	30.000000	0.000000	4.267869	14.826553	5.597960
807.587000	81.389865	4.310458	4.384383	4.310458	1.673315	30.000000	0.000000	4.255700	14.728179	5.627056
807.597000	81.290005	4.294639	4.367937	4.294639	1.665876	30.000000	0.000000	4.243532	14.678992	5.539768
807.607000	81.208805	4.272736	4.345372	4.272736	1.656330	30.000000	0.000000	4.146184	14.568322	5.578563
807.617000	81.092089	4.261784	4.333822	4.261784	1.650580	30.000000	0.000000	4.231363	14.383871	5.520371
807.627000	80.981915	4.254483	4.326010	4.254483	1.646334	30.000000	0.000000	4.231363	14.383871	5.520371
807.637000	80.891399	4.244749	4.315793	4.244749	1.641406	30.000000	0.000000	4.243532	14.322387	5.617357
807.647000	80.798296	4.239881	4.310517	4.239881	1.638330	30.000000	0.000000	4.231363	14.199420	5.559165
807.657000	80.723660	4.237448	4.307781	4.237448	1.636434	30.000000	0.000000	4.255700	14.014969	5.539768
807.667000	80.614671	4.236231	4.306162	4.236231	1.634569	30.000000	0.000000	4.255700	13.892002	5.520371
807.677000	80.562100	4.231363	4.301031	4.231363	1.632020	30.000000	0.000000	4.219195	13.818222	5.491275
807.687000	80.485918	4.227713	4.297054	4.227713	1.629639	30.000000	0.000000	4.219195	13.719848	5.491275
807.697000	80.277120	4.226496	4.295087	4.226496	1.626507	30.000000	0.000000	4.231363	13.633771	5.307000
807.707000	80.210246	4.232580	4.301036	4.232580	1.627994	30.000000	0.000000	4.207026	13.547694	5.520371
807.717000	80.163017	4.232580	4.300871	4.232580	1.627391	30.000000	0.000000	4.231363	13.449320	5.471877
807.727000	80.113147	4.228930	4.296988	4.228930	1.625352	30.000000	0.000000	4.194858	13.363243	5.462178
807.737000	80.113147	4.225279	4.293278	4.225279	1.623949	30.000000	0.000000	4.207026	13.301760	5.442781
807.747000	80.030369	4.224062	4.291753	4.224062	1.622427	30.000000	0.000000	4.219195	13.203386	5.462178
807.757000	80.030369	4.217978	4.285571	4.217978	1.620090	30.000000	0.000000	4.194858	13.129605	5.510672
807.767000	80.030369	4.209460	4.276917	4.209460	1.616818	30.000000	0.000000	4.170521	13.043528	5.500973
807.777000	79.667927	4.205810	4.271950	4.205810	1.610823	30.000000	0.000000	4.182690	12.969748	5.374890
807.787000	79.541893	4.203376	4.269041	4.203376	1.608296	30.000000	0.000000	4.194858	12.883671	5.384589
807.797000	79.475040	4.197292	4.262631	4.197292	1.605124	30.000000	0.000000	4.170521	12.809891	5.403986
807.807000	79.392252	4.194858	4.259873	4.194858	1.603148	30.000000	0.000000	4.182690	12.748407	5.355493
807.817000	79.297492	4.188774	4.253367	4.188774	1.599629	30.000000	0.000000	4.170521	12.650033	5.394288
807.827000	79.221380	4.186340	4.250634	4.186340	1.597741	30.000000	0.000000	4.170521	12.613143	5.365192
807.837000	79.124242	4.183906	4.247828	4.183906	1.595590	30.000000	0.000000	4.182690	12.527066	5.326397
807.847000	79.041445	4.179039	4.242601	4.179039	1.592694	30.000000	0.000000	4.170521	12.428692	5.365192
807.857000	78.958646	4.179039	4.242317	4.179039	1.591655	30.000000	0.000000	4.194858	12.379506	5.355493
807.867000	78.809011	4.177822	4.240567	4.177822	1.589313	30.000000	0.000000	4.158353	12.268835	5.326397
807.877000	78.752553	4.176605	4.239138	4.176605	1.588142	30.000000	0.000000	4.170521	12.182758	5.365192
807.887000	78.669755	4.171738	4.233914	4.171738	1.585255	30.000000	0.000000	4.146184	12.133571	5.326397
807.897000	78.581852	4.169304	4.231143	4.169304	1.583230	30.000000	0.000000	4.146184	12.059791	5.336096
807.907000	78.515031	4.165654	4.227209	4.165654	1.581009	30.000000	0.000000	4.146184	11.986011	5.277904
807.917000	78.402230	4.160786	4.221884	4.160786	1.577753	30.000000	0.000000	4.121847	11.887637	5.316698
807.927000	78.204150	4.158353	4.218739	4.158353	1.574361	30.000000	0.000000	4.146184	11.752373	5.316698
807.937000	78.096499	4.153485	4.213434	4.153485	1.571178	30.000000	0.000000	4.134016	11.752373	5.316698
807.947000	77.994907	4.149835	4.209384	4.149835	1.568535	30.000000	0.000000	4.134016	11.629406	5.297301
807.957000	77.947716	4.146184	4.205521	4.146184	1.566569	30.000000	0.000000	4.158353	11.555625	5.326397
807.967000	77.917337	4.141317	4.200481	4.141317	1.564353	30.000000	0.000000	4.109679	11.494142	5.316698
807.977000	77.832186	4.132799	4.191553	4.132799	1.560082	30.000000	0.000000	4.085342	11.432658	5.297301
807.987000	77.669864	4.126715	4.184833	4.126715	1.555780	30.000000	0.000000	4.085342	11.334285	5.258506
807.997000	77.576665	4.119414	4.177114	4.119414	1.551879	30.000000	0.000000	4.073174	11.334285	5.248808
808.007000	77.524257	4.109679	4.167067	4.109679	1.547568	30.000000	0.000000	4.048837	11.199021	5.277904
808.017000	77.465042	4.103595	4.160699	4.103595	1.544550	30.000000	0.000000	4.061005	11.149834	5.258506
808.027000	77.330987	4.093860	4.150379	4.093860	1.539245	30.000000	0.000000	4.048837	11.026867	5.219712
808.037000	77.244619	4.085342	4.141455	4.085342	1.534988	30.000000	0.000000	4.048837	11.026867	5.219712
808.047000	77.201439	4.075607	4.131442	4.075607	1.530805	30.000000	0.000000	4.036668	10.965383	5.200314
808.057000	77.101395	4.063439	4.118775	4.063439	1.525020	30.000000	0.000000	4.036668	10.854712	5.277904
808.067000	77.045039	4.053704	4.108720	4.053704	1.520684	30.000000	0.000000	4.012331	10.707152	5.277904
808.077000	76.928256	4.046403	4.100934	4.046403	1.516534	30.000000	0.000000	4.012331	10.707152	5.277904
808.087000	76.928256	4.039102	4.093534	4.039102	1.513798	30.000000	0.000000	4.012331	10.608778	5.248808
808.097000	76.928256	4.040319	4.094768	4.040319	1.514254	30.000000	0.000000	4.085342	10.510404	5.287602
808.107000	76.821881	4.036668	4.090717	4.036668	1.511604	30.000000	0.000000	4.012331	10.375140	5.268205
808.117000	76.821881	4.033018	4.087017	4.033018	1.510237	30.000000	0.000000	4.024500	10.301360	5.074231
808.127000	76.361835	4.033018	4.085502	4.033018	1.504705	30.000000	0.000000	4.048837	10.190690	5.239109
808.137000	76.279038	4.033018	4.085230	4.033018	1.503710	30.000000	0.000000	4.048837	10.116909	5.268205
808.147000	76.146177	4.034234	4.086025	4.034234	1.502568	30.000000	0.000000	4.048837	10.080019	5.219712
808.157000	76.093868	4.035451	4.087085	4.035451	1.502392	30.000000	0.000000	4.048837	9.981645	5.277904
808.167000	76.043801	4.035451	4.086921	4.035451	1.501791	30.000000	0.000000	4.012331	9.920162	5.316698
808.177000	75.943111	4.036668	4.087822	4.036668	1.501034	30.000000	0.000000	4.024500	9.834085	5.355493
808.187000	75.793626	4.037885	4.088562	4.037885	1.499691	30.000000	0.000000	4.024500	9.760304	5.365192
808.197000	75.715344	4.031801	4.082145	4.031801	1.496493	30.000000	0.000000	4.024500	9.723414	5.307000
808.207000	75.679673	4.031801	4.082027	4.031801	1.496065	30.000000	0.000000	4.012331	9.612744	5.336096
808.217000	75.611292	4.029367	4.079339	4.029367	1.494343	30.000000	0.000000	4.000163	9.588150	5.229410
808.227000	75.440969	4.025717	4.075085	4.025717	1.490951	30.000000	0.000000	4.012331	9.526667	5.258506
808.237000	75.440969	4.017199	4.066463	4.017199	1.487797	30.000000	0.000000	3.963658	9.502073	5.277904
808.247000	75.295506	4.011114	4.059829	4.011114	1.483810	30.000000	0.000000	3.987994	9.415996	5.268205
808.257000	75.228841	4.003813	4.052223	4.003813	1.480317	30.000000	0.000000	3.975826	9.354513	5.239109
808.267000	75.143068	3.998946	4.047017	3.998946	1.477499	30.000000	0.000000	3.963658	9.305326	5.200314
808.277000	75.017186	3.991645	4.039220	3.991645	1.473311	30.000000	0.000000	3.951489	9.293029	5.180917
808.287000	74.967079	3.980693	4.027976	3.980693	1.468677	30.000000	0.000000	3.914984	9.170062	5.200314
808.297000	74.893419	3.970959	4.017888	3.970959	1.464217	30.000000	0.000000	3.927152	9.096282	5.210013
808.307000	74.807226	3.956356	4.002836	3.956356	1.457822	30.000000	0.000000	3.866310	9.022501	5.180917
808.317000	74.701883	3.946622	3.992650	3.946622	1.453002	30.000000	0.000000	3.902815	8.985611	5.190616
808.327000	74.599571	3.933236	3.978782	3.933236	1.446882	30.000000	0.000000	3.878478	8.924128	5.151821
808.337000	74.493266	3.924718	3.969827	3.924718	1.442513	30.000000	0.000000	3.878478	8.862644	5.151821
808.347000	74.390969	3.914984	3.959655	3.914984	1.437749	30.000000	0.000000	3.890647	8.727380	5.122725
808.357000	74.305157	3.906466	3.950768	3.906466	1.433628	30.000000	0.000000	3.890647	8.739677	5.093629
808.367000	74.168887	3.896731	3.940493	3.896731	1.428484	30.000000	0.000000	3.866310	8.653600	5.074231
808.377000	74.109668	3.895514	3.939075	3.895514	1.427355	30.000000	0.000000	3.939321	8.555226	5.064533
808.387000	74.032627	3.891864	3.935141	3.891864	1.425131	30.000000	0.000000	3.878478	8.469149	5.083930
808.397000	73.864054	3.890647	3.933379	3.890647	1.422746	30.000000	0.000000	3.914984	8.407665	5.083930
808.407000	73.776247	3.894297	3.936793	3.894297	1.423070	30.000000	0.000000	3.902815	8.333885	4.889957
808.417000	73.723004	3.893081	3.935395	3.893081	1.422013	30.000000	0.000000	3.890647	8.247808	5.113026
808.427000	73.644268	3.897948	3.940067	3.897948	1.422884	30.000000	0.000000	3.927152	8.174028	5.025738
808.437000	73.644268	3.902815	3.944987	3.902815	1.424661	30.000000	0.000000	3.927152	8.100247	5.045135
808.447000	73.644268	3.900382	3.942527	3.900382	1.423772	30.000000	0.000000	3.866310	8.026467	5.025738
808.457000	73.518491	3.904032	3.945820	3.904032	1.423655	30.000000	0.000000	3.927152	7.928093	5.064533
808.467000	73.518491	3.908899	3.950740	3.908899	1.425430	30.000000	0.000000	3.914984	7.878906	5.074231
808.477000	73.092141	3.907683	3.948163	3.907683	1.420070	30.000000	0.000000	3.927152	7.805126	5.132423
808.487000	73.052268	3.908899	3.949267	3.908899	1.420052	30.000000	0.000000	3.890647	7.743643	5.083930
808.497000	72.975441	3.911333	3.951483	3.911333	1.420051	30.000000	0.000000	3.939321	7.669862	5.142122
808.507000	72.908921	3.912550	3.952502	3.912550	1.419725	30.000000	0.000000	3.914984	7.632972	5.180917
808.517000	72.769580	3.911333	3.950833	3.911333	1.417678	30.000000	0.000000	3.878478	7.546895	5.161520
808.527000	72.710379	3.906466	3.945730	3.906466	1.415232	30.000000	0.000000	3.878478	7.485411	5.151821
808.537000	72.663369	3.900382	3.939437	3.900382	1.412488	30.000000	0.000000	3.866310	7.460818	5.151821
808.547000	72.598707	3.900382	3.939233	3.900382	1.411746	30.000000	0.000000	3.866310	7.423928	5.074231
808.557000	72.458627	3.890647	3.928962	3.890647	1.406618	30.000000	0.000000	3.829805	7.399334	5.054834
808.567000	72.426112	3.882129	3.920259	3.882129	1.403167	30.000000	0.000000	3.829805	7.337851	5.035437
808.577000	72.383126	3.868744	3.906608	3.868744	1.397840	30.000000	0.000000	3.793299	7.313257	5.054834
808.587000	72.288227	3.852925	3.890339	3.852925	1.391048	30.000000	0.000000	3.732457	7.251774	5.035437
808.597000	72.094675	3.838323	3.874997	3.838323	1.383592	30.000000	0.000000	3.793299	7.227180	4.996642
808.607000	71.982030	3.822504	3.858681	3.822504	1.376624	30.000000	0.000000	3.756794	7.128807	5.006341
808.617000	71.922839	3.811552	3.847444	3.811552	1.372017	30.000000	0.000000	3.768962	7.079620	5.064533
808.627000	71.840164	3.800600	3.836136	3.800600	1.367152	30.000000	0.000000	3.768962	6.932059	5.035437
808.637000	71.630366	3.794516	3.829355	3.794516	1.362626	30.000000	0.000000	3.805468	6.956653	5.074231
808.647000	71.630366	3.790866	3.825671	3.790866	1.361315	30.000000	0.000000	3.829805	6.870576	5.074231
808.657000	71.533202	3.795733	3.830286	3.795733	1.361980	30.000000	0.000000	3.878478	6.772202	5.035437
808.667000	71.413314	3.795733	3.829921	3.795733	1.360645	30.000000	0.000000	3.829805	6.747608	5.006341
808.677000	71.196845	3.800600	3.834171	3.800600	1.359978	30.000000	0.000000	3.841973	6.661531	5.006341
808.687000	71.146630	3.811552	3.845066	3.811552	1.363336	30.000000	0.000000	3.841973	6.587751	4.792970
808.697000	71.051743	3.818853	3.852140	3.818853	1.364885	30.000000	0.000000	3.866310	6.538564	5.035437
808.707000	70.978058	3.829805	3.862961	3.829805	1.367973	30.000000	0.000000	3.866310	6.440190	4.957847
808.717000	70.861350	3.841973	3.874875	3.841973	1.371006	30.000000	0.000000	3.890647	6.366410	5.025738
808.727000	70.764202	3.855358	3.888075	3.855358	1.374686	30.000000	0.000000	3.902815	6.304926	5.035437
808.737000	70.665299	3.866310	3.898813	3.866310	1.377472	30.000000	0.000000	3.914984	6.243443	5.093629
808.747000	70.564840	3.873611	3.905863	3.873611	1.378934	30.000000	0.000000	3.902815	6.169663	5.113026
808.757000	70.496725	3.877262	3.909333	3.877262	1.379461	30.000000	0.000000	3.914984	6.108179	5.229410
808.767000	70.410773	3.886996	3.918880	3.886996	1.381948	30.000000	0.000000	3.927152	6.058992	5.142122
808.777000	70.332169	3.894297	3.925996	3.894297	1.383649	30.000000	0.000000	3.914984	5.948322	5.161520
808.787000	70.332169	3.901598	3.933357	3.901598	1.386243	30.000000	0.000000	3.914984	5.936025	5.190616
808.797000	70.332169	3.905249	3.937037	3.905249	1.387540	30.000000	0.000000	3.902815	5.886838	5.239109
808.807000	70.332169	3.907683	3.939491	3.907683	1.388404	30.000000	0.000000	3.890647	5.849948	5.316698
808.817000	70.086792	3.910116	3.941176	3.910116	1.386465	30.000000	0.000000	3.914984	5.788464	5.336096
808.827000	69.830702	3.912550	3.942828	3.912550	1.384403	30.000000	0.000000	3.927152	5.763871	5.345794
808.837000	69.771541	3.913767	3.943869	3.913767	1.384158	30.000000	0.000000	3.927152	5.702387	5.355493
808.847000	69.697865	3.914984	3.944865	3.914984	1.383746	30.000000	0.000000	3.914984	5.702387	5.394288
808.857000	69.640498	3.916201	3.945911	3.916201	1.383521	30.000000	0.000000	3.927152	5.616310	5.403986
808.867000	69.554525	3.912550	3.941964	3.912550	1.381250	30.000000	0.000000	3.890647	5.604013	5.345794
808.877000	69.491972	3.906466	3.935639	3.906466	1.378390	30.000000	0.000000	3.854141	5.530233	5.403986
808.887000	69.404506	3.900382	3.929237	3.900382	1.375249	30.000000	0.000000	3.854141	5.530233	5.403986
808.897000	69.361361	3.895514	3.924200	3.895514	1.373043	30.000000	0.000000	3.854141	5.493343	5.374890
808.907000	69.293316	3.889430	3.917860	3.889430	1.370127	30.000000	0.000000	3.829805	5.505640	5.423384
808.917000	69.082829	3.884563	3.912304	3.884563	1.366031	30.000000	0.000000	3.866310	5.407266	5.452480
808.927000	68.989406	3.874828	3.902211	3.874828	1.361553	30.000000	0.000000	3.829805	5.345782	5.452480
808.937000	68.989406	3.867527	3.894859	3.867527	1.358988	30.000000	0.000000	3.854141	5.308892	5.471877
808.947000	68.887460	3.855358	3.882291	3.855358	1.353568	30.000000	0.000000	3.793299	5.259705	5.481576
808.957000	68.681969	3.841973	3.868183	3.841973	1.346572	30.000000	0.000000	3.793299	5.235112	5.442781
808.967000	68.576597	3.832238	3.858060	3.832238	1.341986	30.000000	0.000000	3.793299	5.185925	5.287602
808.977000	68.476503	3.824937	3.850405	3.824937	1.338317	30.000000	0.000000	3.781131	5.136738	5.471877
808.987000	68.426244	3.820070	3.845353	3.820070	1.336056	30.000000	0.000000	3.805468	5.087551	5.394288
808.997000	68.349114	3.813986	3.838994	3.813986	1.333073	30.000000	0.000000	3.793299	5.038364	5.452480
809.007000	68.161250	3.807901	3.832301	3.807901	1.328869	30.000000	0.000000	3.768962	4.989178	5.481576
809.017000	68.110987	3.799383	3.823577	3.799383	1.325342	30.000000	0.000000	3.781131	4.939991	5.500973
809.027000	68.026812	3.795733	3.819649	3.795733	1.323141	30.000000	0.000000	3.793299	4.890804	5.520371
809.037000	67.942635	3.790866	3.814497	3.790866	1.320518	30.000000	0.000000	3.805468	4.829320	5.597960
809.047000	67.742472	3.792082	3.815119	3.792082	1.318741	30.000000	0.000000	3.805468	4.767837	5.539768
809.057000	67.620770	3.795733	3.818425	3.795733	1.318671	30.000000	0.000000	3.829805	4.706353	5.578563
809.067000	67.527232	3.794516	3.816919	3.794516	1.317220	30.000000	0.000000	3.781131	4.657166	5.597960
809.077000	67.476958	3.800600	3.822887	3.800600	1.318778	30.000000	0.000000	3.841973	4.657166	5.617357
809.087000	67.274618	3.800600	3.822277	3.800600	1.316551	30.000000	0.000000	3.805468	4.595683	5.636755
809.097000	67.192186	3.803034	3.824476	3.803034	1.316486	30.000000	0.000000	3.817636	4.571089	5.617357
809.107000	67.192186	3.805468	3.826924	3.805468	1.317329	30.000000	0.000000	3.793299	4.521902	5.665851
809.117000	67.047134	3.806685	3.827710	3.806685	1.316152	30.000000	0.000000	3.793299	4.472715	5.636755
809.127000	66.989275	3.806685	3.827535	3.806685	1.315515	30.000000	0.000000	3.793299	4.472715	5.597960
809.137000	66.989275	3.804251	3.825088	3.804251	1.314674	30.000000	0.000000	3.781131	4.374342	5.656152
809.147000	66.989275	3.801817	3.822641	3.801817	1.313833	30.000000	0.000000	3.781131	4.374342	5.685248
809.157000	66.905112	3.789649	3.810153	3.789649	1.308705	30.000000	0.000000	3.708120	4.337451	5.714344
809.167000	66.905112	3.787215	3.807707	3.787215	1.307865	30.000000	0.000000	3.756794	4.300561	5.724043
809.177000	66.457618	3.777480	3.796581	3.777480	1.299618	30.000000	0.000000	3.744625	4.263671	5.733741
809.187000	66.457618	3.770179	3.789243	3.770179	1.297106	30.000000	0.000000	3.732457	4.226781	5.743440
809.197000	66.294412	3.761661	3.780197	3.761661	1.292403	30.000000	0.000000	3.732457	4.153001	5.694947
809.207000	66.208425	3.758011	3.776273	3.758011	1.290216	30.000000	0.000000	3.756794	4.165297	5.675549
809.217000	66.079814	3.759228	3.777114	3.759228	1.289239	30.000000	0.000000	3.805468	4.116111	5.714344
809.227000	66.025900	3.760444	3.778176	3.760444	1.289072	30.000000	0.000000	3.805468	4.103814	5.665851
809.237000	65.959964	3.760444	3.777980	3.760444	1.288357	30.000000	0.000000	3.781131	4.054627	5.724043
809.247000	65.858648	3.761661	3.778902	3.761661	1.287675	30.000000	0.000000	3.793299	4.030033	5.724043
809.257000	65.753003	3.776263	3.793256	3.776263	1.291524	30.000000	0.000000	3.854141	3.993143	5.627056
809.267000	65.667022	3.777480	3.794222	3.777480	1.291004	30.000000	0.000000	3.768962	3.919363	5.801632
809.277000	65.534783	3.782348	3.798716	3.782348	1.291227	30.000000	0.000000	3.793299	3.919363	5.772536
809.287000	65.359972	3.787215	3.803083	3.787215	1.290983	30.000000	0.000000	3.781131	3.894770	5.743440
809.297000	65.259420	3.788432	3.804005	3.788432	1.290301	30.000000	0.000000	3.744625	3.882473	5.782235
809.307000	65.190866	3.795733	3.811131	3.795733	1.292039	30.000000	0.000000	3.829805	3.833286	5.724043
809.317000	65.117298	3.794516	3.809689	3.794516	1.290822	30.000000	0.000000	3.793299	3.784099	5.753139
809.327000	64.997472	3.796950	3.811774	3.796950	1.290342	30.000000	0.000000	3.829805	3.698022	5.753139
809.337000	64.871794	3.801817	3.816284	3.801817	1.290623	30.000000	0.000000	3.829805	3.698022	5.753139
809.347000	64.731538	3.804251	3.818307	3.804251	1.289916	30.000000	0.000000	3.817636	3.685725	5.791933
809.357000	64.664828	3.796950	3.810780	3.796950	1.286713	30.000000	0.000000	3.781131	3.648835	5.821030
809.367000	64.520828	3.801817	3.815235	3.801817	1.286791	30.000000	0.000000	3.817636	3.599648	5.898619
809.377000	64.470551	3.803034	3.816306	3.803034	1.286654	30.000000	0.000000	3.805468	3.562758	5.927715
809.387000	64.434857	3.806685	3.819862	3.806685	1.287499	30.000000	0.000000	3.817636	3.550461	5.908318
809.397000	64.371242	3.810335	3.823335	3.810335	1.288038	30.000000	0.000000	3.781131	3.525868	5.888920
809.407000	64.266042	3.805468	3.818136	3.805468	1.285244	30.000000	0.000000	3.781131	3.525868	5.927715
809.417000	64.030144	3.800600	3.812549	3.800600	1.281030	30.000000	0.000000	3.744625	3.464384	5.947112
809.427000	63.929597	3.795733	3.807366	3.795733	1.278296	30.000000	0.000000	3.781131	3.452088	5.985907
809.437000	63.856084	3.782348	3.793722	3.782348	1.272991	30.000000	0.000000	3.695952	3.427494	5.985907
809.447000	63.708246	3.773830	3.784741	3.773830	1.268527	30.000000	0.000000	3.732457	3.415198	6.024702
809.457000	63.708246	3.768962	3.779859	3.768962	1.266891	30.000000	0.000000	3.732457	3.402901	6.024702
809.467000	63.587652	3.759228	3.769741	3.759228	1.262321	30.000000	0.000000	3.720289	3.366011	6.073195
809.477000	63.587652	3.753143	3.763640	3.753143	1.260278	30.000000	0.000000	3.744625	3.267637	5.985907
809.487000	63.516301	3.743409	3.753668	3.743409	1.256244	30.000000	0.000000	3.720289	3.304527	6.005304
809.497000	63.516301	3.734891	3.745127	3.734891	1.253386	30.000000	0.000000	3.695952	3.292230	5.976208
809.507000	63.371656	3.731240	3.741044	3.731240	1.250617	30.000000	0.000000	3.744625	3.243043	5.947112
809.517000	63.371656	3.730023	3.739824	3.730023	1.250209	30.000000	0.000000	3.732457	3.193857	5.966510
809.527000	62.771348	3.721505	3.729535	3.721505	1.240970	30.000000	0.000000	3.695952	3.193857	5.976208
809.537000	62.704609	3.722722	3.730560	3.722722	1.240667	30.000000	0.000000	3.708120	3.156966	5.859824
809.547000	62.607963	3.722722	3.730279	3.722722	1.239640	30.000000	0.000000	3.732457	3.107780	6.005304
809.557000	62.462011	3.726373	3.733512	3.726373	1.239304	30.000000	0.000000	3.768962	3.058593	6.073195
809.567000	62.277695	3.732457	3.739071	3.732457	1.239366	30.000000	0.000000	3.781131	3.009406	6.102291
809.577000	62.233466	3.732457	3.738942	3.732457	1.238895	30.000000	0.000000	3.744625	2.984812	6.160483
809.587000	62.143651	3.742192	3.748431	3.742192	1.241169	30.000000	0.000000	3.817636	2.947922	6.160483
809.597000	62.016053	3.755577	3.761465	3.755577	1.244243	30.000000	0.000000	3.829805	2.886439	6.170182
809.607000	61.922216	3.764095	3.769721	3.764095	1.246059	30.000000	0.000000	3.829805	2.849548	6.238073
809.617000	61.834196	3.773830	3.779211	3.773830	1.248336	30.000000	0.000000	3.829805	2.837252	6.179881
809.627000	61.767450	3.787215	3.792418	3.787215	1.252044	30.000000	0.000000	3.829805	2.751175	6.228374
809.637000	61.635307	3.803034	3.807867	3.803034	1.255844	30.000000	0.000000	3.866310	2.738878	6.286566
809.647000	61.526321	3.816419	3.820946	3.816419	1.259081	30.000000	0.000000	3.866310	2.701988	6.296265
809.657000	61.347953	3.827371	3.831379	3.827371	1.260753	30.000000	0.000000	3.878478	2.665098	6.335059
809.667000	61.295824	3.838323	3.842186	3.838323	1.263792	30.000000	0.000000	3.890647	2.628207	6.354457
809.677000	61.218471	3.849274	3.852917	3.849274	1.266552	30.000000	0.000000	3.854141	2.603614	6.364155
809.687000	61.141116	3.855358	3.858775	3.855358	1.267707	30.000000	0.000000	3.878478	2.554427	6.441745
809.697000	61.032120	3.860226	3.863319	3.860226	1.268113	30.000000	0.000000	3.878478	2.554427	6.441745
809.707000	60.892028	3.865093	3.867769	3.865093	1.268174	30.000000	0.000000	3.878478	2.529834	6.412649
809.717000	60.775049	3.871177	3.873506	3.871177	1.268886	30.000000	0.000000	3.890647	2.505240	6.412649
809.727000	60.681183	3.871177	3.873224	3.871177	1.267855	30.000000	0.000000	3.829805	2.468350	6.461142
809.737000	60.459717	3.871177	3.872558	3.871177	1.265424	30.000000	0.000000	3.866310	2.419163	6.461142
809.747000	60.373873	3.868744	3.869866	3.868744	1.263687	30.000000	0.000000	3.841973	2.394570	6.480540
809.757000	60.296511	3.866310	3.867199	3.866310	1.262045	30.000000	0.000000	3.854141	2.247009	6.499937
809.767000	60.233765	3.861443	3.862143	3.861443	1.259770	30.000000	0.000000	3.841973	2.345383	6.499937
809.777000	59.972225	3.860226	3.860143	3.860226	1.256514	30.000000	0.000000	3.841973	2.259306	6.470841
809.787000	59.886408	3.862659	3.862319	3.862659	1.256368	30.000000	0.000000	3.902815	2.259306	6.519334
809.797000	59.758833	3.855358	3.854638	3.855358	1.252602	30.000000	0.000000	3.805468	2.234712	6.529033
809.807000	59.637799	3.849274	3.848194	3.849274	1.249308	30.000000	0.000000	3.817636	2.185526	6.548430
809.817000	59.522941	3.843190	3.841770	3.843190	1.246086	30.000000	0.000000	3.829805	2.197822	6.402950
809.827000	59.384933	3.841973	3.840143	3.841973	1.244193	30.000000	0.000000	3.817636	2.148635	6.703609
809.837000	59.236407	3.840756	3.838485	3.840756	1.242188	30.000000	0.000000	3.854141	2.111745	6.684212
809.847000	59.236407	3.841973	3.839702	3.841973	1.242581	30.000000	0.000000	3.854141	2.099449	6.732705
809.857000	59.236407	3.841973	3.839702	3.841973	1.242581	30.000000	0.000000	3.854141	2.062558	6.761801
809.867000	59.236407	3.848057	3.845782	3.848057	1.244549	30.000000	0.000000	3.902815	2.062558	6.761801
809.877000	59.006941	3.857792	3.854827	3.857792	1.245199	30.000000	0.000000	3.939321	2.025668	6.790897
809.887000	59.006941	3.862659	3.859690	3.862659	1.246770	30.000000	0.000000	3.951489	1.988778	6.858788
809.897000	58.628444	3.879695	3.875579	3.879695	1.248128	30.000000	0.000000	3.975826	1.976481	6.761801
809.907000	58.561714	3.897948	3.893612	3.897948	1.253267	30.000000	0.000000	4.000163	1.914998	6.810295
809.917000	58.498983	3.919851	3.915301	3.919851	1.259616	30.000000	0.000000	4.048837	1.927295	6.771500
809.927000	58.425621	3.942971	3.938171	3.942971	1.266231	30.000000	0.000000	4.048837	1.890404	6.858788
809.937000	58.203801	3.963658	3.958154	3.963658	1.270398	30.000000	0.000000	4.061005	1.890404	6.878185
809.947000	58.076266	3.986778	3.980850	3.986778	1.276378	30.000000	0.000000	4.085342	1.853514	6.907281
809.957000	57.990718	4.012331	4.006101	4.012331	1.283593	30.000000	0.000000	4.109679	1.841217	6.965473
809.967000	57.890374	4.034234	4.027659	4.034234	1.289462	30.000000	0.000000	4.121847	1.828921	7.004268
809.977000	57.702568	4.053704	4.046510	4.053704	1.293545	30.000000	0.000000	4.134016	1.828921	6.965473
809.987000	57.621225	4.074390	4.066905	4.074390	1.299214	30.000000	0.000000	4.158353	1.792031	6.926679
809.997000	57.564917	4.093860	4.086161	4.093860	1.304775	30.000000	0.000000	4.170521	1.755140	6.897583
810.007000	57.471007	4.106028	4.098010	4.106028	1.307570	30.000000	0.000000	4.121847	1.742844	6.887884
810.017000	57.471007	4.116980	4.108940	4.116980	1.311058	30.000000	0.000000	4.158353	1.693657	6.810295
810.027000	57.471007	4.127932	4.119870	4.127932	1.314546	30.000000	0.000000	4.158353	1.693657	6.810295
810.037000	57.471007	4.138883	4.130801	4.138883	1.318033	30.000000	0.000000	4.170521	1.669063	6.819993
810.047000	57.471007	4.148618	4.140516	4.148618	1.321133	30.000000	0.000000	4.182690	1.558393	6.829692
810.057000	57.471007	4.155919	4.147803	4.155919	1.323458	30.000000	0.000000	4.182690	1.582986	6.819993
810.067000	57.377000	4.170521	4.162075	4.170521	1.327007	30.000000	0.000000	4.267869	1.558393	6.829692
810.077000	56.491008	4.177822	4.166519	4.177822	1.318953	30.000000	0.000000	4.207026	1.521503	6.771500
810.087000	56.328057	4.187557	4.175705	4.187557	1.320116	30.000000	0.000000	4.255700	1.484613	6.829692
810.097000	56.169065	4.193641	4.181261	4.193641	1.320169	30.000000	0.000000	4.231363	1.472316	6.781198
810.107000	56.091728	4.208243	4.195570	4.208243	1.323855	30.000000	0.000000	4.267869	1.496909	6.975172
810.117000	55.978922	4.225279	4.212190	4.225279	1.327882	30.000000	0.000000	4.328711	1.435426	6.965473
810.127000	55.978922	4.241098	4.227960	4.241098	1.332853	30.000000	0.000000	4.316542	1.423129	7.081857
810.137000	55.978922	4.253267	4.240091	4.253267	1.336678	30.000000	0.000000	4.292206	1.373942	7.159447
810.147000	55.978922	4.275170	4.261926	4.275170	1.343561	30.000000	0.000000	4.401722	1.361645	7.246735
810.157000	55.978922	4.295856	4.282548	4.295856	1.350062	30.000000	0.000000	4.389553	1.361645	7.324324
810.167000	55.978922	4.310458	4.297105	4.310458	1.354651	30.000000	0.000000	4.413890	1.312459	7.460106
810.177000	55.978922	4.333578	4.320154	4.333578	1.361917	30.000000	0.000000	4.438227	1.275568	7.489202
810.187000	55.872444	4.355481	4.341634	4.355481	1.367505	30.000000	0.000000	4.474732	1.275568	7.518298
810.197000	55.872444	4.376168	4.362255	4.376168	1.373999	30.000000	0.000000	4.438227	1.263272	7.586189
810.207000	55.872444	4.399288	4.385301	4.399288	1.381259	30.000000	0.000000	4.499069	1.238678	7.624983
810.217000	55.872444	4.415107	4.401070	4.415107	1.386225	30.000000	0.000000	4.486901	1.238678	7.624983
810.227000	55.872444	4.430926	4.416839	4.430926	1.391192	30.000000	0.000000	4.474732	1.214085	7.644381
810.237000	55.872444	4.451612	4.437459	4.451612	1.397687	30.000000	0.000000	4.499069	1.214085	7.527997
810.247000	55.872444	4.455263	4.441098	4.455263	1.398833	30.000000	0.000000	4.438227	1.189491	7.663778
810.257000	54.241739	4.463781	4.444032	4.463781	1.381217	30.000000	0.000000	4.474732	1.189491	7.634682
810.267000	54.179076	4.467431	4.447453	4.467431	1.381568	30.000000	0.000000	4.450395	1.164898	7.634682
810.277000	54.089165	4.471082	4.450781	4.471082	1.381580	30.000000	0.000000	4.474732	1.177195	7.605586
810.287000	53.986633	4.466214	4.445587	4.466214	1.378804	30.000000	0.000000	4.426058	1.128008	7.654079
810.297000	53.773452	4.472299	4.450918	4.472299	1.378034	30.000000	0.000000	4.499069	1.128008	7.586189
810.307000	53.710813	4.472299	4.450705	4.472299	1.377256	30.000000	0.000000	4.499069	1.128008	7.586189
810.317000	53.629042	4.472299	4.450427	4.472299	1.376241	30.000000	0.000000	4.486901	1.078821	7.624983
810.327000	53.470345	4.473515	4.451099	4.473515	1.374646	30.000000	0.000000	4.486901	1.005041	7.634682
810.337000	53.227761	4.473515	4.450274	4.473515	1.371637	30.000000	0.000000	4.499069	1.041931	7.731669
810.347000	53.079387	4.489334	4.465506	4.489334	1.374641	30.000000	0.000000	4.596417	1.041931	7.751066
810.357000	52.922932	4.501503	4.477075	4.501503	1.376416	30.000000	0.000000	4.596417	1.017337	7.770463
810.367000	52.743179	4.517322	4.492193	4.517322	1.379005	30.000000	0.000000	4.608585	0.992744	7.818957
810.377000	52.617979	4.534358	4.508703	4.534358	1.382635	30.000000	0.000000	4.645091	0.992744	7.789861
810.387000	52.415089	4.558695	4.532202	4.558695	1.387497	30.000000	0.000000	4.669427	1.005041	7.915944
810.397000	52.300111	4.576947	4.549950	4.576947	1.391598	30.000000	0.000000	4.681596	0.931260	7.925642
810.407000	52.155847	4.600067	4.572432	4.600067	1.396794	30.000000	0.000000	4.730270	0.943557	7.993533
810.417000	52.012102	4.620754	4.592491	4.620754	1.401241	30.000000	0.000000	4.693764	0.943557	8.022629
810.427000	51.873771	4.654825	4.625867	4.654825	1.409795	30.000000	0.000000	4.827617	0.918964	8.042026
810.437000	51.713340	4.687680	4.657949	4.687680	1.417670	30.000000	0.000000	4.827617	0.894370	8.100219
810.447000	51.642203	4.714451	4.684297	4.714451	1.424841	30.000000	0.000000	4.864123	0.882073	8.226301
810.457000	51.455895	4.744872	4.713856	4.744872	1.431597	30.000000	0.000000	4.900628	0.845183	8.197205
810.467000	51.357470	4.776510	4.744932	4.776510	1.439847	30.000000	0.000000	4.924965	0.845183	8.245699
810.477000	51.280284	4.808148	4.776081	4.808148	1.448362	30.000000	0.000000	4.961470	0.832886	8.342685
810.487000	51.123354	4.836135	4.803309	4.836135	1.454702	30.000000	0.000000	4.949302	0.808293	8.400877
810.497000	50.962377	4.867773	4.834141	4.867773	1.462061	30.000000	0.000000	4.997975	0.783700	8.429974
810.507000	50.824759	4.898194	4.863844	4.898194	1.469343	30.000000	0.000000	5.034481	0.783700	8.536659
810.517000	50.586737	4.932266	4.896792	4.932266	1.476334	30.000000	0.000000	5.034481	0.746809	8.517262
810.527000	50.586737	4.955386	4.919746	4.955386	1.483255	30.000000	0.000000	5.058818	0.746809	8.604550
810.537000	50.514887	4.976072	4.940014	4.976072	1.488464	30.000000	0.000000	5.034481	0.734513	8.585152
810.547000	50.514887	4.995542	4.959343	4.995542	1.494287	30.000000	0.000000	5.058818	0.697623	8.614248
810.557000	50.357935	5.010144	4.973247	5.010144	1.496494	30.000000	0.000000	5.046649	0.660732	8.643344
810.567000	50.090665	5.021096	4.983109	5.021096	1.496080	30.000000	0.000000	5.034481	0.660732	8.633646
810.577000	49.992940	5.029613	4.991193	5.029613	1.497268	30.000000	0.000000	5.046649	0.648436	8.672440
810.587000	49.917013	5.042999	5.004188	5.042999	1.500202	30.000000	0.000000	5.083155	0.660732	8.701536
810.597000	49.801872	5.050300	5.010996	5.050300	1.500779	30.000000	0.000000	5.070986	0.636139	8.662742
810.607000	49.630204	5.050300	5.010345	5.050300	1.498401	30.000000	0.000000	5.034481	0.513172	8.691838
810.617000	49.540427	5.055167	5.014833	5.055167	1.498602	30.000000	0.000000	5.083155	0.611546	8.701536
810.627000	49.409870	5.053950	5.013131	5.053950	1.496433	30.000000	0.000000	5.046649	0.562359	8.750030
810.637000	49.266399	5.058818	5.017414	5.058818	1.495886	30.000000	0.000000	5.083155	0.550062	8.788825
810.647000	49.167929	5.060035	5.018247	5.060035	1.494882	30.000000	0.000000	5.070986	0.550062	8.769427
810.657000	49.059655	5.062468	5.020250	5.062468	1.494100	30.000000	0.000000	5.070986	0.537765	8.808222
810.667000	48.902695	5.068552	5.025687	5.068552	1.493719	30.000000	0.000000	5.095323	0.525469	8.808222
810.677000	48.733047	5.077070	5.033488	5.077070	1.493874	30.000000	0.000000	5.131828	0.562359	8.856715
810.687000	48.555560	5.080721	5.036432	5.080721	1.492483	30.000000	0.000000	5.119660	0.488578	8.885811
810.697000	48.408347	5.089239	5.044315	5.089239	1.492939	30.000000	0.000000	5.156165	0.476282	8.934305
810.707000	48.245527	5.092889	5.047314	5.092889	1.491745	30.000000	0.000000	5.070986	0.500875	8.944003
810.717000	48.105143	5.105058	5.058837	5.105058	1.493354	30.000000	0.000000	5.204839	0.463985	9.002195
810.727000	47.971564	5.120877	5.074002	5.120877	1.496115	30.000000	0.000000	5.204839	0.500875	9.031291
810.737000	47.843819	5.134262	5.086775	5.134262	1.498237	30.000000	0.000000	5.217007	0.414798	9.137977
810.747000	47.707277	5.153732	5.105539	5.153732	1.502000	30.000000	0.000000	5.265681	0.427095	9.205868
810.757000	47.595212	5.173201	5.124394	5.173201	1.506094	30.000000	0.000000	5.265681	0.427095	9.205868
810.767000	47.420640	5.191454	5.141798	5.191454	1.508940	30.000000	0.000000	5.277850	0.390205	9.244662
810.777000	47.322163	5.212140	5.161904	5.212140	1.513555	30.000000	0.000000	5.338692	0.390205	9.302854
810.787000	47.192504	5.236477	5.185500	5.236477	1.518774	30.000000	0.000000	5.363029	0.365611	9.409540
810.797000	47.137904	5.260814	5.209386	5.260814	1.525051	30.000000	0.000000	5.399534	0.341018	9.341649
810.807000	47.057897	5.292452	5.240399	5.292452	1.533071	30.000000	0.000000	5.387366	0.341018	9.535623
810.817000	46.964388	5.311921	5.259307	5.311921	1.537359	30.000000	0.000000	5.399534	0.316424	9.555020
810.827000	46.886314	5.335041	5.281888	5.335041	1.542918	30.000000	0.000000	5.436040	0.328721	9.584116
810.837000	46.656270	5.353294	5.299042	5.353294	1.544850	30.000000	0.000000	5.399534	0.291831	9.613212
810.847000	46.656270	5.373980	5.319519	5.373980	1.550820	30.000000	0.000000	5.472545	0.267237	9.719897
810.857000	46.477010	5.394667	5.339276	5.394667	1.554163	30.000000	0.000000	5.472545	0.254941	9.700500
810.867000	46.100412	5.415353	5.358234	5.415353	1.554588	30.000000	0.000000	5.484713	0.267237	9.845980
810.877000	45.972761	5.432389	5.374575	5.432389	1.557598	30.000000	0.000000	5.509050	0.279534	9.758692
810.887000	45.838100	5.449425	5.390885	5.449425	1.560494	30.000000	0.000000	5.533387	0.254941	9.875076
810.897000	45.717375	5.464027	5.404841	5.464027	1.562888	30.000000	0.000000	5.545556	0.254941	9.972063
810.907000	45.717375	5.482280	5.422896	5.482280	1.568109	30.000000	0.000000	5.569892	0.205754	10.020556
810.917000	45.376867	5.501749	5.440765	5.501749	1.568605	30.000000	0.000000	5.594229	0.193457	10.156338
810.927000	45.243414	5.524869	5.463083	5.524869	1.573202	30.000000	0.000000	5.667240	0.205754	10.311517
810.937000	45.068660	5.555290	5.492444	5.555290	1.579239	30.000000	0.000000	5.703745	0.181160	10.360010
810.947000	44.891360	5.583278	5.519382	5.583278	1.584519	30.000000	0.000000	5.752419	0.181160	10.631573
810.957000	44.639575	5.623434	5.558031	5.623434	1.592090	30.000000	0.000000	5.874104	0.131973	10.835245
810.967000	44.391595	5.668457	5.601492	5.668457	1.601043	30.000000	0.000000	5.934946	0.156567	11.000123
810.977000	44.207146	5.721998	5.653621	5.721998	1.613319	30.000000	0.000000	6.044462	0.181160	11.242590
810.987000	43.874837	5.781623	5.711115	5.781623	1.624952	30.000000	0.000000	6.129641	0.119677	11.407467
810.997000	43.723546	5.850984	5.778976	5.850984	1.642062	30.000000	0.000000	6.239157	0.144270	11.649934
811.007000	43.470429	5.922777	5.848781	5.922777	1.658175	30.000000	0.000000	6.287831	0.144270	11.911798
811.017000	43.470429	6.001872	5.926888	6.001872	1.680319	30.000000	0.000000	6.385178	0.131973	12.105772
811.027000	43.156931	6.082184	6.004792	6.082184	1.697675	30.000000	0.000000	6.470357	0.082787	12.338540
811.037000	42.985891	6.168580	6.089312	6.168580	1.718955	30.000000	0.000000	6.567705	0.131973	12.542212
811.047000	42.985891	6.258627	6.178202	6.258627	1.744048	30.000000	0.000000	6.652884	0.095083	12.697391
811.057000	42.769333	6.345022	6.262476	6.345022	1.764432	30.000000	0.000000	6.738063	0.131973	12.833173
811.067000	42.649130	6.431418	6.347180	6.431418	1.786382	30.000000	0.000000	6.798906	0.107380	12.891365
811.077000	42.405299	6.514164	6.427675	6.514164	1.805104	30.000000	0.000000	6.871916	0.070490	12.930159
811.087000	42.405299	6.596909	6.509321	6.596909	1.828033	30.000000	0.000000	6.957095	0.095083	12.949557
811.097000	42.296204	6.677221	6.588032	6.677221	1.848334	30.000000	0.000000	7.042274	0.168864	13.017448
811.107000	42.192554	6.752665	6.661955	6.752665	1.867342	30.000000	0.000000	7.042274	0.095083	13.036845
811.117000	41.990526	6.822026	6.729371	6.822026	1.882829	30.000000	0.000000	7.078780	0.082787	13.075640
811.127000	41.990526	6.875567	6.782185	6.875567	1.897606	30.000000	0.000000	7.005769	0.107380	13.192024
811.137000	41.870170	6.929108	6.834388	6.929108	1.910150	30.000000	0.000000	7.103117	0.082787	13.211421
811.147000	41.748194	6.974131	6.878172	6.974131	1.920284	30.000000	0.000000	7.103117	0.107380	13.221120
811.157000	41.516856	7.009420	6.911786	7.009420	1.925662	30.000000	0.000000	7.090948	0.033600	13.104736
811.167000	41.516856	7.036190	6.938184	7.036190	1.933016	30.000000	0.000000	7.066611	0.070490	13.007749
811.177000	41.392999	7.058093	6.959142	7.058093	1.936695	30.000000	0.000000	7.090948	0.095083	12.949557
811.187000	41.289325	7.077563	6.977801	7.077563	1.940076	30.000000	0.000000	7.151790	0.058193	12.949557
811.197000	41.050913	7.082430	6.981364	7.082430	1.936898	30.000000	0.000000	7.090948	0.070490	12.939858
811.207000	40.899818	7.089731	6.987778	7.089731	1.936034	30.000000	0.000000	7.115285	0.070490	13.007749
811.217000	40.766868	7.095816	6.993085	7.095816	1.935178	30.000000	0.000000	7.139622	0.045896	12.959255
811.227000	40.570241	7.110418	7.006454	7.110418	1.935430	30.000000	0.000000	7.151790	0.070490	13.104736
811.237000	40.368079	7.116502	7.011398	7.116502	1.933250	30.000000	0.000000	7.163959	0.058193	13.095037
811.247000	40.286047	7.123803	7.018165	7.123803	1.933676	30.000000	0.000000	7.176127	0.021303	13.085338
811.257000	40.154907	7.132321	7.025874	7.132321	1.933496	30.000000	0.000000	7.176127	0.070490	13.095037
811.267000	40.154907	7.150574	7.043854	7.150574	1.938444	30.000000	0.000000	7.249138	0.009006	13.133832
811.277000	40.001941	7.168826	7.061035	7.168826	1.940471	30.000000	0.000000	7.273475	0.033600	13.143530
811.287000	39.615872	7.182212	7.072198	7.182212	1.936716	30.000000	0.000000	7.285643	0.033600	13.298709
811.297000	39.453935	7.210199	7.098906	7.210199	1.941158	30.000000	0.000000	7.370823	0.021303	13.250216
811.307000	39.333711	7.240620	7.128224	7.240620	1.947034	30.000000	0.000000	7.419496	-0.015587	13.424792
811.317000	39.100554	7.271041	7.156939	7.271041	1.950711	30.000000	0.000000	7.443833	0.009006	13.570272
811.327000	39.016798	7.307547	7.192427	7.307547	1.958880	30.000000	0.000000	7.516844	-0.040181	13.628464
811.337000	38.900323	7.345269	7.228933	7.345269	1.966721	30.000000	0.000000	7.541181	-0.003290	13.725451
811.347000	38.789354	7.389075	7.271449	7.389075	1.976275	30.000000	0.000000	7.614191	0.021303	13.832136
811.357000	38.541620	7.434098	7.314418	7.434098	1.983432	30.000000	0.000000	7.626360	-0.003290	13.880630
811.367000	38.407208	7.474254	7.353198	7.474254	1.991483	30.000000	0.000000	7.650697	0.021303	14.026110
811.377000	38.340008	7.518061	7.395929	7.518061	2.001817	30.000000	0.000000	7.711539	-0.015587	14.094001
811.387000	38.243568	7.558217	7.434903	7.558217	2.010578	30.000000	0.000000	7.687202	-0.003290	14.094001
811.397000	38.145064	7.592288	7.467877	7.592288	2.017661	30.000000	0.000000	7.711539	-0.003290	14.181289
811.407000	38.013881	7.620276	7.494681	7.620276	2.022452	30.000000	0.000000	7.699371	-0.015587	14.229782
811.417000	37.886169	7.642179	7.515515	7.642179	2.025682	30.000000	0.000000	7.662865	-0.015587	14.317070
811.427000	37.700315	7.653130	7.525255	7.653130	2.024823	30.000000	0.000000	7.626360	-0.003290	14.336468
811.437000	37.581927	7.660432	7.531777	7.660432	2.024357	30.000000	0.000000	7.614191	0.021303	14.384961
811.447000	37.436349	7.657998	7.528578	7.657998	2.020768	30.000000	0.000000	7.589855	-0.077071	14.423756
811.457000	37.254008	7.650697	7.520391	7.650697	2.015156	30.000000	0.000000	7.553349	-0.003290	14.346166
811.467000	37.172397	7.638528	7.507979	7.638528	2.010305	30.000000	0.000000	7.529012	-0.027884	14.307372
811.477000	37.095893	7.616625	7.486029	7.616625	2.003002	30.000000	0.000000	7.492507	-0.027884	14.200686
811.487000	37.032168	7.595939	7.465347	7.595939	1.996284	30.000000	0.000000	7.480339	-0.052477	14.132795
811.497000	36.928461	7.570385	7.439665	7.570385	1.987497	30.000000	0.000000	7.456002	-0.027884	14.142494
811.507000	36.821310	7.543614	7.412773	7.543614	1.978337	30.000000	0.000000	7.431665	-0.015587	13.997014
811.517000	36.642749	7.519278	7.387888	7.519278	1.968414	30.000000	0.000000	7.419496	-0.040181	14.074603
811.527000	36.457087	7.497374	7.365363	7.497374	1.959012	30.000000	0.000000	7.407328	-0.027884	14.142494
811.537000	36.360721	7.466953	7.334959	7.466953	1.949168	30.000000	0.000000	7.309980	-0.027884	14.123097
811.547000	36.265788	7.456002	7.323690	7.456002	1.944445	30.000000	0.000000	7.480339	-0.015587	14.258878
811.557000	35.885574	7.451134	7.316867	7.451134	1.935720	30.000000	0.000000	7.504675	-0.040181	14.317070
811.567000	35.738294	7.456002	7.320856	7.456002	1.934097	30.000000	0.000000	7.577686	-0.027884	14.569236
811.577000	35.522908	7.470604	7.334035	7.470604	1.933657	30.000000	0.000000	7.638528	-0.052477	14.588633
811.587000	35.287745	7.493724	7.355465	7.493724	1.935013	30.000000	0.000000	7.711539	-0.027884	14.763209
811.597000	35.038220	7.521711	7.381587	7.521711	1.937314	30.000000	0.000000	7.735876	-0.040181	14.879593
811.607000	34.798283	7.565518	7.423274	7.565518	1.943837	30.000000	0.000000	7.869729	-0.027884	15.063868
811.617000	34.798283	7.610541	7.467451	7.610541	1.955405	30.000000	0.000000	7.869729	-0.040181	15.189951
811.627000	34.798283	7.660432	7.516403	7.660432	1.968223	30.000000	0.000000	7.906234	-0.027884	15.316034
811.637000	34.335437	7.726141	7.578312	7.726141	1.975738	30.000000	0.000000	7.967076	-0.040181	15.316034
811.647000	34.131479	7.773598	7.623724	7.773598	1.983725	30.000000	0.000000	7.954908	-0.064774	15.577898
811.657000	34.131479	7.819838	7.669073	7.819838	1.995524	30.000000	0.000000	7.967076	-0.040181	15.626392
811.667000	34.014619	7.859994	7.707796	7.859994	2.003369	30.000000	0.000000	7.979245	-0.052477	15.713680
811.677000	33.965240	7.886765	7.733770	7.886765	2.009174	30.000000	0.000000	7.906234	-0.052477	15.781570
811.687000	33.801647	7.908668	7.754321	7.908668	2.011371	30.000000	0.000000	7.930571	-0.052477	15.800968
811.697000	33.732080	7.928137	7.773016	7.928137	2.014882	30.000000	0.000000	7.930571	-0.040181	15.791269
811.707000	33.630004	7.930571	7.774823	7.930571	2.013385	30.000000	0.000000	7.894066	-0.052477	15.878557
811.717000	33.630004	7.934222	7.778402	7.934222	2.014312	30.000000	0.000000	7.906234	-0.064774	15.781570
811.727000	33.360789	7.936655	7.779260	7.936655	2.009350	30.000000	0.000000	7.930571	-0.077071	15.830064
811.737000	33.229988	7.933005	7.774940	7.933005	2.005718	30.000000	0.000000	7.930571	-0.064774	15.820365
811.747000	33.091751	7.933005	7.774156	7.933005	2.002857	30.000000	0.000000	7.954908	-0.113961	15.800968
811.757000	33.091751	7.935438	7.776541	7.935438	2.003471	30.000000	0.000000	7.991413	-0.040181	15.791269
811.767000	32.812560	7.937872	7.777344	7.937872	1.998308	30.000000	0.000000	8.003582	-0.052477	15.742776
811.777000	32.677889	7.950041	7.788502	7.950041	1.998582	30.000000	0.000000	8.027919	-0.064774	15.733077
811.787000	32.558503	7.959775	7.797361	7.959775	1.998554	30.000000	0.000000	8.027919	-0.064774	15.781570
811.797000	32.405177	7.970727	7.807218	7.970727	1.998122	30.000000	0.000000	8.040087	-0.052477	15.771872
811.807000	32.001438	7.982895	7.816840	7.982895	1.992788	30.000000	0.000000	8.015750	-0.052477	15.820365
811.817000	31.791235	7.997497	7.829942	7.997497	1.992064	30.000000	0.000000	8.052255	-0.052477	15.859160
811.827000	31.652233	8.009666	7.841064	8.009666	1.992203	30.000000	0.000000	8.052255	-0.040181	15.946448
811.837000	31.498936	8.021834	7.852101	8.021834	1.992037	30.000000	0.000000	8.052255	-0.064774	15.994941
811.847000	31.336080	8.036437	7.865464	8.036437	1.992266	30.000000	0.000000	8.100929	-0.077071	16.091928
811.857000	31.202701	8.052255	7.880184	8.052255	1.993402	30.000000	0.000000	8.149603	-0.052477	16.188915
811.867000	31.136955	8.070508	7.897669	8.070508	1.996544	30.000000	0.000000	8.186108	-0.089367	16.324696
811.877000	31.027425	8.093628	7.919665	8.093628	1.999966	30.000000	0.000000	8.259119	-0.089367	16.441080
811.887000	30.866427	8.125266	7.949694	8.125266	2.004393	30.000000	0.000000	8.344298	-0.052477	16.712643
811.897000	30.771166	8.155687	7.978907	8.155687	2.009885	30.000000	0.000000	8.344298	-0.052477	16.712643
811.907000	30.629371	8.195843	8.017368	8.195843	2.016771	30.000000	0.000000	8.417309	-0.089367	16.809630
811.917000	30.399052	8.238433	8.057685	8.238433	2.022340	30.000000	0.000000	8.478151	-0.064774	16.955110
811.927000	30.161464	8.288323	8.105086	8.288323	2.029494	30.000000	0.000000	8.551162	-0.040181	17.129687
811.937000	30.161464	8.340648	8.156253	8.340648	2.042306	30.000000	0.000000	8.575499	-0.077071	17.207276
811.947000	30.051940	8.394189	8.207960	8.394189	2.053040	30.000000	0.000000	8.636341	-0.064774	17.284865
811.957000	29.953149	8.440429	8.253189	8.440429	2.059636	30.000000	0.000000	8.612004	-0.064774	17.352756
811.967000	29.790262	8.487886	8.300730	8.487886	2.058712	30.000000	0.000000	8.660678	-0.077071	17.333359
811.977000	29.790262	8.525608	8.337621	8.525608	2.067861	30.000000	0.000000	8.636341	-0.077071	17.362455
811.987000	29.579587	8.554812	8.367661	8.554812	2.058666	30.000000	0.000000	8.636341	-0.077071	17.352756
811.997000	29.228987	8.581583	8.396311	8.581583	2.037988	30.000000	0.000000	8.612004	-0.138554	17.352756
812.007000	29.115936	8.603486	8.418537	8.603486	2.034438	30.000000	0.000000	8.636341	-0.077071	17.343057
812.017000	29.036492	8.615655	8.431004	8.615655	2.031161	30.000000	0.000000	8.599836	-0.113961	17.294564
812.027000	28.956586	8.620522	8.436329	8.620522	2.026118	30.000000	0.000000	8.599836	-0.089367	17.275167
812.037000	28.880191	8.615655	8.432103	8.615655	2.019063	30.000000	0.000000	8.526825	-0.089367	17.197577
812.047000	28.794135	8.601052	8.418416	8.601052	2.008997	30.000000	0.000000	8.490320	-0.101664	17.158783
812.057000	28.685642	8.590101	8.408457	8.590101	1.998079	30.000000	0.000000	8.502488	-0.113961	17.052097
812.067000	28.543987	8.573065	8.392771	8.573065	1.983234	30.000000	0.000000	8.490320	-0.089367	17.139385
812.077000	28.391222	8.556029	8.377157	8.556029	1.967593	30.000000	0.000000	8.465983	-0.113961	17.100590
812.087000	28.158977	8.541427	8.364472	8.541427	1.946503	30.000000	0.000000	8.490320	-0.126258	17.119988
812.097000	28.066702	8.524391	8.348428	8.524391	1.935598	30.000000	0.000000	8.441646	-0.089367	17.119988
812.107000	27.881816	8.518307	8.343746	8.518307	1.920169	30.000000	0.000000	8.575499	-0.101664	17.178180
812.117000	27.733586	8.517090	8.343577	8.517090	1.908648	30.000000	0.000000	8.587667	-0.077071	17.197577
812.127000	27.437146	8.519524	8.348003	8.519524	1.886732	30.000000	0.000000	8.624172	-0.089367	17.313961
812.137000	27.437146	8.532909	8.361119	8.532909	1.889697	30.000000	0.000000	8.660678	-0.150851	17.304263
812.147000	27.255307	8.556029	8.385029	8.556029	1.881004	30.000000	0.000000	8.721520	-0.101664	17.333359
812.157000	27.059292	8.582800	8.412620	8.582800	1.871974	30.000000	0.000000	8.770194	-0.089367	17.449743
812.167000	26.787944	8.616871	8.447898	8.616871	1.858711	30.000000	0.000000	8.831036	-0.126258	17.556428
812.177000	26.642745	8.649726	8.481117	8.649726	1.854699	30.000000	0.000000	8.794531	-0.113961	17.643716
812.187000	26.464330	8.681364	8.513381	8.681364	1.847811	30.000000	0.000000	8.806699	-0.126258	17.779498
812.197000	26.362092	8.717870	8.549895	8.717870	1.847722	30.000000	0.000000	8.806699	-0.126258	17.711607
812.207000	26.226649	8.740990	8.573518	8.740990	1.842192	30.000000	0.000000	8.806699	-0.089367	18.041362
812.217000	26.134269	8.760459	8.593262	8.760459	1.839171	30.000000	0.000000	8.782362	-0.113961	18.070458
812.227000	26.060974	8.771411	8.604518	8.771411	1.835815	30.000000	0.000000	8.733688	-0.101664	18.060759
812.237000	25.991048	8.771411	8.605009	8.771411	1.830422	30.000000	0.000000	8.660678	-0.101664	18.031663
812.247000	25.845889	8.767760	8.602444	8.767760	1.818478	30.000000	0.000000	8.685015	-0.101664	17.915279
812.257000	25.769625	8.759242	8.594620	8.759242	1.810847	30.000000	0.000000	8.685015	-0.101664	17.915279
812.267000	25.640576	8.747074	8.583580	8.747074	1.798429	30.000000	0.000000	8.709352	-0.101664	17.924978
812.277000	25.517895	8.739773	8.577270	8.739773	1.787531	30.000000	0.000000	8.721520	-0.101664	17.857087
812.287000	25.326695	8.731255	8.570239	8.731255	1.771175	30.000000	0.000000	8.721520	-0.126258	17.992869
812.297000	25.122810	8.723954	8.564486	8.723954	1.754145	30.000000	0.000000	8.733688	-0.126258	18.012266
812.307000	24.981005	8.713002	8.554715	8.713002	1.741156	30.000000	0.000000	8.697183	-0.101664	17.944375
812.317000	24.835803	8.704484	8.547354	8.704484	1.728431	30.000000	0.000000	8.697183	-0.113961	17.944375
812.327000	24.835803	8.700834	8.543770	8.700834	1.727706	30.000000	0.000000	8.697183	-0.126258	17.808594
812.337000	24.357672	8.705701	8.551842	8.705701	1.692452	30.000000	0.000000	8.709352	-0.101664	17.944375
812.347000	24.244855	8.709352	8.556203	8.709352	1.684630	30.000000	0.000000	8.721520	-0.113961	17.924978
812.357000	24.079125	8.717870	8.565711	8.717870	1.673745	30.000000	0.000000	8.770194	-0.101664	17.934677
812.367000	23.960710	8.727604	8.576090	8.727604	1.666658	30.000000	0.000000	8.806699	-0.101664	18.012266
812.377000	23.799406	8.738556	8.587961	8.738556	1.656547	30.000000	0.000000	8.831036	-0.101664	18.070458
812.387000	23.516537	8.756809	8.607845	8.756809	1.638599	30.000000	0.000000	8.904047	-0.113961	18.215938
812.397000	23.355251	8.779929	8.631683	8.779929	1.630706	30.000000	0.000000	8.964889	-0.138554	18.419611
812.407000	23.197323	8.812783	8.665073	8.812783	1.624813	30.000000	0.000000	9.025731	-0.113961	18.419611
812.417000	23.006931	8.852939	8.705875	8.852939	1.617707	30.000000	0.000000	9.098742	-0.126258	18.535995
812.427000	22.825612	8.900396	8.753805	8.900396	1.612506	30.000000	0.000000	9.171753	-0.150851	18.710571
812.437000	22.671041	8.953937	8.807544	8.953937	1.610323	30.000000	0.000000	9.244763	-0.126258	18.788160
812.447000	22.599097	9.007479	8.860716	9.007479	1.614393	30.000000	0.000000	9.256932	-0.138554	18.904544
812.457000	22.386090	9.056152	8.910099	9.056152	1.606584	30.000000	0.000000	9.256932	-0.101664	19.001531
812.467000	22.253636	9.104826	8.958926	9.104826	1.604896	30.000000	0.000000	9.293437	-0.126258	18.943339
812.477000	22.253636	9.153500	9.006820	9.153500	1.613476	30.000000	0.000000	9.317774	-0.126258	19.117915
812.487000	22.125272	9.194873	9.048448	9.194873	1.610675	30.000000	0.000000	9.317774	-0.126258	19.137313
812.497000	21.940186	9.230161	9.084501	9.230161	1.602264	30.000000	0.000000	9.317774	-0.113961	19.117915
812.507000	21.821723	9.261799	9.116491	9.261799	1.598394	30.000000	0.000000	9.342111	-0.126258	19.156710
812.517000	21.821723	9.286136	9.140446	9.286136	1.602594	30.000000	0.000000	9.342111	-0.126258	19.108217
812.527000	21.591403	9.301955	9.157676	9.301955	1.587067	30.000000	0.000000	9.329942	-0.113961	19.098518
812.537000	21.463008	9.308039	9.164591	9.308039	1.577933	30.000000	0.000000	9.305605	-0.101664	19.088819
812.547000	21.307940	9.312907	9.170499	9.312907	1.566480	30.000000	0.000000	9.305605	-0.138554	19.020929
812.557000	21.173457	9.316557	9.175061	9.316557	1.556452	30.000000	0.000000	9.293437	-0.150851	18.943339
812.567000	21.029035	9.308039	9.167710	9.308039	1.543623	30.000000	0.000000	9.208258	-0.175444	18.953038
812.577000	20.852547	9.288570	9.149797	9.288570	1.526501	30.000000	0.000000	9.123079	-0.138554	18.914243
812.587000	20.728027	9.269100	9.131507	9.269100	1.513529	30.000000	0.000000	9.123079	-0.138554	18.914243
812.597000	20.531594	9.245980	9.110126	9.245980	1.494396	30.000000	0.000000	9.086573	-0.138554	18.953038
812.607000	20.439733	9.219210	9.084399	9.219210	1.482915	30.000000	0.000000	9.074405	-0.126258	18.933640
812.617000	20.090999	9.194873	9.062877	9.194873	1.451955	30.000000	0.000000	9.098742	-0.101664	19.079121
812.627000	20.090999	9.171753	9.040089	9.171753	1.448304	30.000000	0.000000	9.098742	-0.113961	19.195505
812.637000	19.890623	9.151066	9.021102	9.151066	1.429602	30.000000	0.000000	9.098742	-0.126258	19.302190
812.647000	19.702920	9.132814	9.004419	9.132814	1.412340	30.000000	0.000000	9.123079	-0.126258	19.399177
812.657000	19.515206	9.120645	8.993728	9.120645	1.396086	30.000000	0.000000	9.171753	-0.101664	19.544657
812.667000	19.334821	9.123079	8.997382	9.123079	1.382661	30.000000	0.000000	9.232595	-0.101664	19.709535
812.677000	19.334821	9.140115	9.014183	9.140115	1.385243	30.000000	0.000000	9.293437	-0.126258	19.816220
812.687000	19.334821	9.159584	9.033385	9.159584	1.388194	30.000000	0.000000	9.317774	-0.200038	19.942303
812.697000	18.731646	9.191222	9.068800	9.191222	1.346638	30.000000	0.000000	9.402953	-0.101664	20.029591
812.707000	18.568693	9.225294	9.103558	9.225294	1.339096	30.000000	0.000000	9.415121	-0.089367	20.165372
812.717000	18.417495	9.260582	9.139441	9.260582	1.332557	30.000000	0.000000	9.451627	-0.126258	20.233263
812.727000	18.417495	9.295871	9.174268	9.295871	1.337635	30.000000	0.000000	9.451627	-0.113961	20.310853
812.737000	18.144663	9.328726	9.208617	9.328726	1.321197	30.000000	0.000000	9.427290	-0.101664	20.359346
812.747000	18.045337	9.360363	9.240549	9.360363	1.317957	30.000000	0.000000	9.439458	-0.126258	20.369045
812.757000	17.973451	9.387134	9.267486	9.387134	1.316125	30.000000	0.000000	9.439458	-0.089367	20.359346
812.767000	17.886769	9.405387	9.286121	9.405387	1.311921	30.000000	0.000000	9.415121	-0.113961	20.339949
812.777000	17.811129	9.415121	9.296269	9.415121	1.307375	30.000000	0.000000	9.390785	-0.113961	20.310853
812.787000	17.687925	9.411471	9.293538	9.411471	1.297262	30.000000	0.000000	9.281269	-0.138554	20.339949
812.797000	17.585354	9.400519	9.283449	9.400519	1.287770	30.000000	0.000000	9.293437	-0.101664	20.242962
812.807000	17.503419	9.387134	9.270809	9.387134	1.279574	30.000000	0.000000	9.281269	-0.138554	20.204167
812.817000	17.331042	9.364014	9.249188	9.364014	1.263081	30.000000	0.000000	9.220426	-0.138554	20.165372
812.827000	17.331042	9.338460	9.223948	9.338460	1.259634	30.000000	0.000000	9.196089	-0.187741	20.184770
812.837000	17.179314	9.311690	9.198566	9.311690	1.244359	30.000000	0.000000	9.159584	-0.101664	20.087783
812.847000	17.013831	9.283702	9.172070	9.283702	1.227950	30.000000	0.000000	9.159584	-0.138554	20.126578
812.857000	16.838870	9.258149	9.148037	9.258149	1.211229	30.000000	0.000000	9.183921	-0.126258	20.097482
812.867000	16.562946	9.231378	9.123489	9.231378	1.186780	30.000000	0.000000	9.147416	-0.138554	20.087783
812.877000	16.460349	9.210692	9.103750	9.210692	1.176360	30.000000	0.000000	9.183921	-0.113961	20.145975
812.887000	16.241414	9.204607	9.099239	9.204607	1.159052	30.000000	0.000000	9.220426	-0.163148	20.126578
812.897000	16.038766	9.198523	9.094613	9.198523	1.143017	30.000000	0.000000	9.232595	-0.089367	20.242962
812.907000	15.899708	9.197306	9.094361	9.197306	1.132402	30.000000	0.000000	9.269100	-0.113961	20.301154
812.917000	15.727817	9.210692	9.108772	9.210692	1.121112	30.000000	0.000000	9.354279	-0.113961	20.378743
812.927000	15.559056	9.219210	9.118350	9.219210	1.109449	30.000000	0.000000	9.281269	-0.113961	20.466031
812.937000	15.394738	9.245980	9.145954	9.245980	1.100285	30.000000	0.000000	9.427290	-0.113961	20.543621
812.947000	15.165326	9.275184	9.176417	9.275184	1.086436	30.000000	0.000000	9.451627	-0.113961	20.630909
812.957000	15.093525	9.308039	9.209417	9.308039	1.084849	30.000000	0.000000	9.512469	-0.138554	20.747293
812.967000	14.935308	9.346978	9.249036	9.346978	1.077369	30.000000	0.000000	9.536806	-0.212335	20.805485
812.977000	14.816970	9.388351	9.290795	9.388351	1.073119	30.000000	0.000000	9.597648	-0.138554	20.892773
812.987000	14.728036	9.426073	9.328743	9.426073	1.070630	30.000000	0.000000	9.597648	-0.138554	20.892773
812.997000	14.728036	9.467446	9.369689	9.467446	1.075329	30.000000	0.000000	9.646322	-0.113961	20.921869
813.007000	14.436976	9.501517	9.405445	9.501517	1.056793	30.000000	0.000000	9.609817	-0.113961	20.950965
813.017000	14.324225	9.530722	9.435145	9.530722	1.051347	30.000000	0.000000	9.646322	-0.113961	20.921869
813.027000	14.172601	9.564793	9.469940	9.564793	1.043384	30.000000	0.000000	9.621985	-0.101664	20.960664
813.037000	14.172601	9.581829	9.486807	9.581829	1.045242	30.000000	0.000000	9.597648	-0.138554	20.921869
813.047000	14.172601	9.598865	9.503674	9.598865	1.047100	30.000000	0.000000	9.621985	-0.138554	20.912171
813.057000	13.745573	9.595214	9.503064	9.595214	1.013650	30.000000	0.000000	9.475964	-0.113961	20.950965
813.067000	13.686433	9.598865	9.507096	9.598865	1.009464	30.000000	0.000000	9.573311	-0.101664	20.883075
813.077000	13.596437	9.591564	9.500496	9.591564	1.001749	30.000000	0.000000	9.524638	-0.138554	20.883075
813.087000	13.493837	9.584263	9.493983	9.584263	0.993077	30.000000	0.000000	9.524638	-0.113961	20.892773
813.097000	13.246545	9.570878	9.482452	9.570878	0.972676	30.000000	0.000000	9.512469	-0.175444	20.824883
813.107000	13.082393	9.558709	9.471541	9.558709	0.958853	30.000000	0.000000	9.488132	-0.101664	20.863677
813.117000	12.900965	9.544107	9.458333	9.544107	0.943514	30.000000	0.000000	9.500301	-0.113961	20.892773
813.127000	12.900965	9.539240	9.453509	9.539240	0.943033	30.000000	0.000000	9.573311	-0.138554	20.921869
813.137000	12.724985	9.535589	9.451112	9.535589	0.929244	30.000000	0.000000	9.561143	-0.101664	20.960664
813.147000	12.405300	9.531939	9.449707	9.531939	0.904545	30.000000	0.000000	9.585480	-0.126258	21.028555
813.157000	12.253797	9.548974	9.467645	9.548974	0.894624	30.000000	0.000000	9.646322	-0.113961	20.921869
813.167000	12.074758	9.556275	9.476123	9.556275	0.881678	30.000000	0.000000	9.646322	-0.126258	21.154638
813.177000	11.882188	9.570878	9.491936	9.570878	0.868362	30.000000	0.000000	9.670659	-0.113961	21.222528
813.187000	11.790143	9.589130	9.510675	9.589130	0.863003	30.000000	0.000000	9.707164	-0.113961	21.300118
813.197000	11.657588	9.608600	9.530905	9.608600	0.854639	30.000000	0.000000	9.707164	-0.126258	21.319515
813.207000	11.488738	9.634154	9.557426	9.634154	0.844006	30.000000	0.000000	9.743670	-0.113961	21.435899
813.217000	11.332469	9.662141	9.586278	9.662141	0.834493	30.000000	0.000000	9.780175	-0.138554	21.455297
813.227000	11.146174	9.686478	9.611722	9.686478	0.822311	30.000000	0.000000	9.816680	-0.113961	21.561982
813.237000	11.043616	9.718116	9.643833	9.718116	0.817116	30.000000	0.000000	9.877522	-0.150851	21.552283
813.247000	10.931750	9.752187	9.678427	9.752187	0.811361	30.000000	0.000000	9.926196	-0.138554	21.610475
813.257000	10.785685	9.781392	9.708436	9.781392	0.802512	30.000000	0.000000	9.938365	-0.150851	21.668667
813.267000	10.620078	9.810596	9.738587	9.810596	0.792095	30.000000	0.000000	9.938365	-0.150851	21.658969
813.277000	10.453574	9.834933	9.763918	9.834933	0.781161	30.000000	0.000000	9.914028	-0.150851	21.668667
813.287000	10.318021	9.851969	9.781786	9.851969	0.772006	30.000000	0.000000	9.877522	-0.138554	21.639571
813.297000	10.171970	9.867788	9.798523	9.867788	0.761916	30.000000	0.000000	9.865354	-0.138554	21.649270
813.307000	10.013366	9.876306	9.808099	9.876306	0.750273	30.000000	0.000000	9.828849	-0.126258	21.620174
813.317000	9.896218	9.879956	9.812550	9.879956	0.741470	30.000000	0.000000	9.816680	-0.126258	21.591078
813.327000	9.770910	9.879956	9.813432	9.879956	0.731765	30.000000	0.000000	9.816680	-0.113961	21.591078
813.337000	9.650835	9.878739	9.813068	9.878739	0.722385	30.000000	0.000000	9.865354	-0.150851	21.639571
813.347000	9.551486	9.865354	9.800469	9.865354	0.713735	30.000000	0.000000	9.792343	-0.150851	21.726860
813.357000	9.400250	9.851969	9.788231	9.851969	0.701116	30.000000	0.000000	9.804512	-0.138554	21.775353
813.367000	9.300900	9.833716	9.770790	9.833716	0.692184	30.000000	0.000000	9.755838	-0.150851	21.833545
813.377000	9.104244	9.814247	9.752815	9.814247	0.675750	30.000000	0.000000	9.719333	-0.138554	21.949929
813.387000	8.958235	9.793560	9.733271	9.793560	0.663178	30.000000	0.000000	9.670659	-0.236928	21.940230
813.397000	8.958235	9.772874	9.712712	9.772874	0.661778	30.000000	0.000000	9.658490	-0.113961	21.911134
813.407000	8.784355	9.752187	9.693354	9.752187	0.647172	30.000000	0.000000	9.621985	-0.150851	21.872340
813.417000	8.374563	9.733935	9.678029	9.733935	0.614961	30.000000	0.000000	9.634154	-0.175444	21.872340
813.427000	8.213971	9.716899	9.662192	9.716899	0.601782	30.000000	0.000000	9.646322	-0.138554	22.027519
813.437000	8.088728	9.701080	9.647317	9.701080	0.591388	30.000000	0.000000	9.707164	-0.150851	22.027519
813.447000	7.902270	9.698646	9.646170	9.698646	0.577241	30.000000	0.000000	9.768006	-0.126258	22.328178
813.457000	7.693001	9.697429	9.646386	9.697429	0.561482	30.000000	0.000000	9.792343	-0.138554	22.396068
813.467000	7.474191	9.708381	9.658770	9.708381	0.545720	30.000000	0.000000	9.865354	-0.150851	22.444562
813.477000	7.259848	9.724200	9.675969	9.724200	0.530545	30.000000	0.000000	9.877522	-0.163148	22.483356
813.487000	7.040283	9.759489	9.712581	9.759489	0.515979	30.000000	0.000000	10.023544	-0.163148	22.463959
813.497000	6.862012	9.795994	9.750131	9.795994	0.504488	30.000000	0.000000	10.023544	-0.150851	22.483356
813.507000	6.721837	9.839800	9.794695	9.839800	0.496155	30.000000	0.000000	10.060049	-0.126258	22.580343
813.517000	6.665787	9.883607	9.838687	9.883607	0.494114	30.000000	0.000000	10.072218	-0.175444	22.512452
813.527000	6.546337	9.926196	9.881910	9.926196	0.487152	30.000000	0.000000	10.072218	-0.163148	22.541548
813.537000	6.469545	9.961485	9.917574	9.961485	0.483022	30.000000	0.000000	10.060049	-0.150851	22.570644
813.547000	6.291279	9.996773	9.953947	9.996773	0.471091	30.000000	0.000000	10.120891	-0.163148	22.590042
813.557000	6.166317	10.024761	9.982685	10.024761	0.462829	30.000000	0.000000	10.072218	-0.163148	22.619138
813.567000	6.031430	10.046664	10.005438	10.046664	0.453486	30.000000	0.000000	10.084386	-0.150851	22.667631
813.577000	5.965092	10.071001	10.030139	10.071001	0.449483	30.000000	0.000000	10.120891	-0.150851	22.580343
813.587000	5.835307	10.079519	10.039529	10.079519	0.439881	30.000000	0.000000	10.108723	-0.163148	22.803413
813.597000	5.592213	10.085603	10.047288	10.085603	0.421462	30.000000	0.000000	10.084386	-0.150851	22.764618
813.607000	5.451425	10.090470	10.053120	10.090470	0.410854	30.000000	0.000000	10.108723	-0.187741	22.861605
813.617000	5.331244	10.092904	10.056383	10.092904	0.401729	30.000000	0.000000	10.096554	-0.138554	22.851906
813.627000	5.167526	10.098988	10.063587	10.098988	0.389411	30.000000	0.000000	10.133060	-0.150851	22.939194
813.637000	5.003813	10.106289	10.072004	10.106289	0.377137	30.000000	0.000000	10.133060	-0.150851	22.968290
813.647000	4.842913	10.106289	10.073125	10.106289	0.364811	30.000000	0.000000	10.120891	-0.126258	23.055578
813.657000	4.733161	10.112373	10.079953	10.112373	0.356626	30.000000	0.000000	10.133060	-0.150851	22.997386
813.667000	4.470012	10.119675	10.089062	10.119675	0.336741	30.000000	0.000000	10.157397	-0.175444	23.065277
813.677000	4.340133	10.124542	10.094817	10.124542	0.326971	30.000000	0.000000	10.169565	-0.200038	23.104072
813.687000	4.204823	10.129409	10.100611	10.129409	0.316784	30.000000	0.000000	10.157397	-0.187741	23.084674
813.697000	4.204823	10.137927	10.109104	10.137927	0.317050	30.000000	0.000000	10.169565	-0.150851	23.133168
813.707000	3.911325	10.141578	10.114784	10.141578	0.294734	30.000000	0.000000	10.145228	-0.163148	23.104072
813.717000	3.781422	10.142795	10.116899	10.142795	0.284855	30.000000	0.000000	10.108723	-0.138554	23.084674
813.727000	3.659198	10.137927	10.112891	10.137927	0.275401	30.000000	0.000000	10.084386	-0.150851	22.997386
813.737000	3.659198	10.129409	10.104394	10.129409	0.275170	30.000000	0.000000	10.047881	-0.126258	22.919797
813.747000	3.580432	10.114807	10.090372	10.114807	0.268787	30.000000	0.000000	9.974870	-0.150851	22.754919
813.757000	3.580432	10.088037	10.063666	10.088037	0.268076	30.000000	0.000000	9.865354	-0.163148	22.531850
813.767000	3.416409	10.046664	10.023518	10.046664	0.254605	30.000000	0.000000	9.743670	-0.150851	22.250588
813.777000	3.416409	9.990689	9.967672	9.990689	0.253187	30.000000	0.000000	9.609817	-0.150851	21.959628
813.787000	3.360437	9.922546	9.900064	9.922546	0.247293	30.000000	0.000000	9.475964	-0.150851	21.591078
813.797000	3.327321	9.838583	9.816515	9.838583	0.242757	30.000000	0.000000	9.329942	-0.138554	21.212830
813.807000	3.309274	9.741236	9.719505	9.741236	0.239037	30.000000	0.000000	9.171753	-0.200038	20.815184
813.817000	3.283795	9.632937	9.611615	9.632937	0.234540	30.000000	0.000000	9.025731	-0.138554	20.407839
813.827000	3.255407	9.512469	9.491598	9.512469	0.229582	30.000000	0.000000	8.879710	-0.163148	20.078084
813.837000	3.219595	9.382267	9.361910	9.382267	0.223922	30.000000	0.000000	8.745857	-0.163148	19.748329
813.847000	3.219595	9.249631	9.229562	9.249631	0.220756	30.000000	0.000000	8.648509	-0.163148	19.447670
813.857000	3.219595	9.121862	9.102070	9.121862	0.217707	30.000000	0.000000	8.587667	-0.150851	19.166409
813.867000	2.984559	8.998961	8.980875	8.998961	0.198937	30.000000	0.000000	8.514656	-0.138554	18.933640
813.877000	2.867058	8.879710	8.862574	8.879710	0.188498	30.000000	0.000000	8.417309	-0.150851	18.671776
813.887000	2.790411	8.772628	8.756155	8.772628	0.181200	30.000000	0.000000	8.405140	-0.150851	18.671776
813.897000	2.665560	8.676497	8.660940	8.676497	0.171124	30.000000	0.000000	8.368635	-0.126258	18.681475
813.907000	2.517520	8.596185	8.581636	8.596185	0.160044	30.000000	0.000000	8.368635	-0.113961	18.691174
813.917000	2.108012	8.528042	8.515972	8.528042	0.132766	30.000000	0.000000	8.344298	-0.138554	18.729968
813.927000	1.976040	8.476934	8.465693	8.476934	0.123653	30.000000	0.000000	8.368635	-0.126258	18.768763
813.937000	1.835703	8.436778	8.426390	8.436778	0.114274	30.000000	0.000000	8.344298	-0.150851	18.768763
813.947000	1.736309	8.408791	8.399001	8.408791	0.107692	30.000000	0.000000	8.368635	-0.150851	18.788160
813.957000	1.662261	8.379587	8.370249	8.379587	0.102716	30.000000	0.000000	8.295624	-0.150851	18.700872
813.967000	1.626557	8.362551	8.353433	8.362551	0.100293	30.000000	0.000000	8.344298	-0.163148	18.584488
813.977000	1.554534	8.350382	8.341683	8.350382	0.095690	30.000000	0.000000	8.295624	-0.150851	18.448707
813.987000	1.496077	8.333347	8.324993	8.333347	0.091885	30.000000	0.000000	8.234782	-0.126258	18.235336
813.997000	1.462949	8.312660	8.304513	8.312660	0.089618	30.000000	0.000000	8.161772	-0.138554	18.060759
814.007000	1.419453	8.287107	8.279227	8.287107	0.086673	30.000000	0.000000	8.113098	-0.113961	17.808594
814.017000	1.401274	8.257902	8.250152	8.257902	0.085256	30.000000	0.000000	8.052255	-0.126258	17.575826
814.027000	1.378512	8.217746	8.210159	8.217746	0.083457	30.000000	0.000000	7.967076	-0.138554	17.381852
814.037000	1.335016	8.167856	8.160554	8.167856	0.080322	30.000000	0.000000	7.845392	-0.138554	17.149084
814.047000	1.304438	8.109447	8.102364	8.109447	0.077913	30.000000	0.000000	7.784550	-0.138554	16.974508
814.057000	1.238181	8.053472	8.046797	8.053472	0.073429	30.000000	0.000000	7.735876	-0.113961	16.790233
814.067000	1.168664	7.986546	7.980299	7.986546	0.068714	30.000000	0.000000	7.675034	-0.126258	16.605958
814.077000	1.092037	7.926921	7.921128	7.926921	0.063713	30.000000	0.000000	7.699371	-0.224631	16.538067
814.087000	0.984816	7.872162	7.866977	7.872162	0.057040	30.000000	0.000000	7.687202	-0.113961	16.489574
814.097000	0.798443	7.824706	7.820529	7.824706	0.045938	30.000000	0.000000	7.687202	-0.138554	16.479875
814.107000	0.798443	7.790634	7.786476	7.790634	0.045738	30.000000	0.000000	7.772381	-0.138554	16.479875
814.117000	0.798443	7.765080	7.760936	7.765080	0.045588	30.000000	0.000000	7.796718	-0.126258	16.576862
814.127000	0.616605	7.748044	7.744853	7.748044	0.035107	30.000000	0.000000	7.796718	-0.126258	16.664150
814.137000	0.205441	7.746827	7.745766	7.746827	0.011679	30.000000	0.000000	7.833223	-0.113961	16.780534
814.147000	0.036463	7.750478	7.750290	7.750478	0.002073	30.000000	0.000000	7.821055	-0.101664	16.829028
814.157000	-0.207107	7.758996	7.758996	7.758996	0.000000	30.000000	0.000000	7.821055	-0.150851	16.858124
814.167000	-0.316784	7.771164	7.771164	7.771164	0.000000	30.000000	0.000000	7.796718	-0.138554	16.819329
814.177000	-0.357825	7.778465	7.778465	7.778465	0.000000	30.000000	0.000000	7.772381	-0.150851	16.732041
814.187000	-0.401288	7.783333	7.783333	7.783333	0.000000	30.000000	0.000000	7.735876	-0.150851	16.596259
814.197000	-0.455130	7.780899	7.780899	7.780899	0.000000	30.000000	0.000000	7.662865	-0.126258	16.285902
814.207000	-0.524819	7.769948	7.769948	7.769948	0.000000	30.000000	0.000000	7.662865	-0.126258	16.285902
814.217000	-0.524819	7.751695	7.751695	7.751695	0.000000	30.000000	0.000000	7.614191	-0.175444	16.179216
814.227000	-0.598955	7.726141	7.726141	7.726141	0.000000	30.000000	0.000000	7.541181	-0.126258	16.072531
814.237000	-0.642415	7.687202	7.687202	7.687202	0.000000	30.000000	0.000000	7.443833	-0.150851	15.781570
814.247000	-0.683477	7.648263	7.648263	7.648263	0.000000	30.000000	0.000000	7.431665	-0.150851	15.597296
814.257000	-0.734876	7.603240	7.603240	7.603240	0.000000	30.000000	0.000000	7.370823	-0.150851	15.403322
814.267000	-0.801079	7.558217	7.558217	7.558217	0.000000	30.000000	0.000000	7.346486	-0.138554	15.267541
814.277000	-0.910728	7.518061	7.518061	7.518061	0.000000	30.000000	0.000000	7.370823	-0.150851	15.112362
814.287000	-1.021553	7.480339	7.480339	7.480339	0.000000	30.000000	0.000000	7.358654	-0.138554	15.063868
814.297000	-1.120869	7.456002	7.456002	7.456002	0.000000	30.000000	0.000000	7.419496	-0.150851	15.034772
814.307000	-1.244474	7.432882	7.432882	7.432882	0.000000	30.000000	0.000000	7.431665	-0.150851	15.044471
814.317000	-1.329022	7.420713	7.420713	7.420713	0.000000	30.000000	0.000000	7.492507	-0.150851	15.073567
814.327000	-1.694330	7.424364	7.424364	7.424364	0.000000	30.000000	0.000000	7.577686	-0.150851	15.170554
814.337000	-1.863448	7.445050	7.445050	7.445050	0.000000	30.000000	0.000000	7.650697	-0.163148	15.199650
814.347000	-1.863448	7.474254	7.474254	7.474254	0.000000	30.000000	0.000000	7.723707	-0.163148	15.325733
814.357000	-2.177381	7.511976	7.511976	7.511976	0.000000	30.000000	0.000000	7.748044	-0.150851	15.364527
814.367000	-2.239223	7.557000	7.557000	7.557000	0.000000	30.000000	0.000000	7.796718	-0.150851	15.403322
814.377000	-2.303094	7.602023	7.602023	7.602023	0.000000	30.000000	0.000000	7.821055	-0.150851	15.442117
814.387000	-2.369237	7.647046	7.647046	7.647046	0.000000	30.000000	0.000000	7.808887	-0.150851	15.374226
814.397000	-2.418427	7.679901	7.679901	7.679901	0.000000	30.000000	0.000000	7.748044	-0.138554	15.209348
814.407000	-2.474175	7.709105	7.709105	7.709105	0.000000	30.000000	0.000000	7.723707	-0.138554	15.122060
814.417000	-2.507288	7.722491	7.722491	7.722491	0.000000	30.000000	0.000000	7.626360	-0.150851	15.025074
814.427000	-2.604186	7.721274	7.721274	7.721274	0.000000	30.000000	0.000000	7.565518	-0.138554	14.850497
814.437000	-2.653402	7.705455	7.705455	7.705455	0.000000	30.000000	0.000000	7.492507	-0.138554	14.753511
814.447000	-2.698835	7.672600	7.672600	7.672600	0.000000	30.000000	0.000000	7.395159	-0.126258	14.588633
814.457000	-2.775358	7.632444	7.632444	7.632444	0.000000	30.000000	0.000000	7.346486	-0.126258	14.433454
814.467000	-2.775358	7.577686	7.577686	7.577686	0.000000	30.000000	0.000000	7.249138	-0.113961	14.414057
814.477000	-2.775358	7.518061	7.518061	7.518061	0.000000	30.000000	0.000000	7.224801	-0.126258	14.239481
814.487000	-2.956934	7.454785	7.454785	7.454785	0.000000	30.000000	0.000000	7.176127	-0.150851	14.171590
814.497000	-3.018808	7.392726	7.392726	7.392726	0.000000	30.000000	0.000000	7.127454	-0.126258	14.142494
814.507000	-3.082702	7.333100	7.333100	7.333100	0.000000	30.000000	0.000000	7.127454	-0.138554	14.113398
814.517000	-3.167292	7.281993	7.281993	7.281993	0.000000	30.000000	0.000000	7.115285	-0.126258	14.084302
814.527000	-3.284991	7.238186	7.238186	7.238186	0.000000	30.000000	0.000000	7.127454	-0.113961	14.094001
814.537000	-3.384195	7.200464	7.200464	7.200464	0.000000	30.000000	0.000000	7.115285	-0.126258	13.909726
814.547000	-3.501769	7.176127	7.176127	7.176127	0.000000	30.000000	0.000000	7.151790	-0.101664	13.987315
814.557000	-3.631478	7.156658	7.156658	7.156658	0.000000	30.000000	0.000000	7.151790	-0.126258	13.890328
814.567000	-3.769867	7.144489	7.144489	7.144489	0.000000	30.000000	0.000000	7.127454	-0.126258	13.754547
814.577000	-3.908248	7.133538	7.133538	7.133538	0.000000	30.000000	0.000000	7.115285	-0.138554	13.725451
814.587000	-4.044478	7.133538	7.133538	7.133538	0.000000	30.000000	0.000000	7.176127	-0.113961	13.638163
814.597000	-4.205545	7.138405	7.138405	7.138405	0.000000	30.000000	0.000000	7.176127	-0.126258	13.618765
814.607000	-4.277857	7.145706	7.145706	7.145706	0.000000	30.000000	0.000000	7.200464	-0.113961	13.715752
814.617000	-4.362459	7.154224	7.154224	7.154224	0.000000	30.000000	0.000000	7.200464	-0.089367	13.570272
814.627000	-4.447061	7.159092	7.159092	7.159092	0.000000	30.000000	0.000000	7.176127	-0.113961	13.531477
814.637000	-4.480153	7.161525	7.161525	7.161525	0.000000	30.000000	0.000000	7.139622	-0.089367	13.434491
814.647000	-4.593725	7.149357	7.149357	7.149357	0.000000	30.000000	0.000000	7.030106	-0.113961	13.162928
814.657000	-4.593725	7.132321	7.132321	7.132321	0.000000	30.000000	0.000000	6.981432	-0.077071	12.978653
814.667000	-4.649356	7.115285	7.115285	7.115285	0.000000	30.000000	0.000000	6.957095	-0.101664	12.687693
814.677000	-4.700870	7.095816	7.095816	7.095816	0.000000	30.000000	0.000000	6.920590	-0.077071	12.755583
814.687000	-4.758475	7.067828	7.067828	7.067828	0.000000	30.000000	0.000000	6.896253	-0.101664	12.668295
814.697000	-4.826384	7.033757	7.033757	7.033757	0.000000	30.000000	0.000000	6.835411	-0.077071	12.629500
814.707000	-4.888313	6.987516	6.987516	6.987516	0.000000	30.000000	0.000000	6.738063	-0.089367	12.571308
814.717000	-4.991516	6.944927	6.944927	6.944927	0.000000	30.000000	0.000000	6.774569	-0.077071	12.503418
814.727000	-5.181366	6.897470	6.897470	6.897470	0.000000	30.000000	0.000000	6.701558	-0.089367	12.387034
814.737000	-5.286644	6.850013	6.850013	6.850013	0.000000	30.000000	0.000000	6.665053	-0.101664	12.338540
814.747000	-5.402147	6.812291	6.812291	6.812291	0.000000	30.000000	0.000000	6.652884	-0.138554	12.193060
814.757000	-5.402147	6.778219	6.778219	6.778219	0.000000	30.000000	0.000000	6.640716	-0.077071	12.086375
814.767000	-5.600265	6.747798	6.747798	6.747798	0.000000	30.000000	0.000000	6.652884	-0.089367	11.999086
814.777000	-5.672464	6.723461	6.723461	6.723461	0.000000	30.000000	0.000000	6.677221	-0.089367	11.950593
814.787000	-5.767342	6.697907	6.697907	6.697907	0.000000	30.000000	0.000000	6.640716	-0.089367	11.892401
814.797000	-5.860210	6.676004	6.676004	6.676004	0.000000	30.000000	0.000000	6.616379	-0.101664	11.863305
814.807000	-5.860210	6.669920	6.669920	6.669920	0.000000	30.000000	0.000000	6.677221	-0.077071	11.698428
814.817000	-6.068638	6.658968	6.658968	6.658968	0.000000	30.000000	0.000000	6.665053	-0.027884	11.834209
814.827000	-6.068638	6.652884	6.652884	6.652884	0.000000	30.000000	0.000000	6.640716	-0.089367	11.795414
814.837000	-6.068638	6.651667	6.651667	6.651667	0.000000	30.000000	0.000000	6.652884	-0.077071	11.814812
814.847000	-6.369868	6.646800	6.646800	6.646800	0.000000	30.000000	0.000000	6.604210	-0.064774	11.756620
814.857000	-6.442000	6.652884	6.652884	6.652884	0.000000	30.000000	0.000000	6.701558	-0.052477	11.737222
814.867000	-6.516247	6.654101	6.654101	6.654101	0.000000	30.000000	0.000000	6.665053	-0.077071	11.688729
814.877000	-6.586534	6.650450	6.650450	6.650450	0.000000	30.000000	0.000000	6.640716	-0.077071	11.669331
814.887000	-6.650531	6.648017	6.648017	6.648017	0.000000	30.000000	0.000000	6.616379	-0.113961	11.562646
814.897000	-6.743483	6.648017	6.648017	6.648017	0.000000	30.000000	0.000000	6.616379	-0.077071	11.475358
814.907000	-6.797172	6.638282	6.638282	6.638282	0.000000	30.000000	0.000000	6.579873	-0.077071	11.417166
814.917000	-6.836521	6.633415	6.633415	6.633415	0.000000	30.000000	0.000000	6.616379	-0.089367	11.388070
814.927000	-6.939878	6.623680	6.623680	6.623680	0.000000	30.000000	0.000000	6.543368	-0.040181	11.339576
814.937000	-6.939878	6.613945	6.613945	6.613945	0.000000	30.000000	0.000000	6.555537	-0.064774	11.310480

